Data from HR4C21111__50__10-17-39-534.txt Node

Date: Mon Feb 22 10:17:39 IST 2021
User: Kapil
Spectrometer: HR4C2111
Trigger mode: 4
Integration Time (sec): 2.300000E0
Scans to average: 1
Electric dark correction enabled: true
Nonlinearity correction enabled: false
Boxcar width: 0
XAxis mode: Wavelengths
Number of Pixels in Spectrum: 3648
>>>>>Begin Spectral Data<<<<<
189.472	-429.23
189.745	-429.23
190.017	-429.23
190.289	-454.23
190.561	-304.23
190.834	-27.23
191.106	-112.23
191.378	8.77
191.65	6.77
191.923	-135.23
192.195	-101.23
192.467	136.77
192.739	120.77
193.011	-10.23
193.284	81.77
193.556	154.77
193.828	-22.23
194.1	-101.23
194.372	-115.23
194.644	59.77
194.916	61.77
195.188	-151.23
195.46	-70.23
195.732	58.77
196.004	-19.23
196.276	-123.23
196.548	-71.23
196.82	62.77
197.092	49.77
197.364	-138.23
197.636	-87.23
197.908	12.77
198.18	-51.23
198.452	-92.23
198.724	-48.23
198.996	53.77
199.268	70.77
199.54	-20.23
199.811	-101.23
200.083	103.77
200.355	8.77
200.627	-209.23
200.899	-55.23
201.171	67.77
201.442	-48.23
201.714	-190.23
201.986	-100.23
202.258	49.77
202.529	99.77
202.801	-10.23
203.073	51.77
203.345	177.77
203.616	-2.23
203.888	-153.23
204.16	-138.23
204.431	79.77
204.703	-15.23
204.974	-146.23
205.246	-7.23
205.518	168.77
205.789	2.77
206.061	-124.23
206.332	-99.23
206.604	12.77
206.876	94.77
207.147	123.77
207.419	14.77
207.69	130.77
207.962	-35.23
208.233	-183.23
208.505	13.77
208.776	168.77
209.047	74.77
209.319	-134.23
209.59	-87.23
209.862	108.77
210.133	-38.23
210.404	-154.23
210.676	-108.23
210.947	59.77
211.219	58.77
211.49	-145.23
211.761	-67.23
212.033	29.77
212.304	-41.23
212.575	-195.23
212.846	-97.23
213.118	23.77
213.389	-49.23
213.66	-103.23
213.931	-60.23
214.203	15.77
214.474	-38.23
214.745	-128.23
215.016	144.77
215.287	453.77
215.559	60.77
215.83	-140.23
216.101	-87.23
216.372	-0.23
216.643	60.77
216.914	5.77
217.185	-91.23
217.456	153.77
217.727	30.77
217.998	-161.23
218.269	-67.23
218.54	25.77
218.811	-12.23
219.082	-110.23
219.353	-75.23
219.624	-26.23
219.895	-44.23
220.166	-146.23
220.437	-122.23
220.708	90.77
220.979	-18.23
221.25	-155.23
221.521	-105.23
221.792	38.77
222.063	88.77
222.334	34.77
222.604	179.77
222.875	164.77
223.146	94.77
223.417	-177.23
223.688	-34.23
223.958	121.77
224.229	-52.23
224.5	-196.23
224.771	-85.23
225.041	71.77
225.312	39.77
225.583	-113.23
225.854	-62.23
226.124	91.77
226.395	-9.23
226.666	-136.23
226.936	-107.23
227.207	63.77
227.478	-53.23
227.748	-106.23
228.019	46.77
228.289	227.77
228.56	-49.23
228.831	-55.23
229.101	40.77
229.372	64.77
229.642	-27.23
229.913	-171.23
230.183	-123.23
230.454	-10.23
230.724	4.77
230.995	-82.23
231.265	-67.23
231.536	59.77
231.806	48.77
232.076	-98.23
232.347	-118.23
232.617	33.77
232.888	21.77
233.158	-70.23
233.428	-142.23
233.699	-22.23
233.969	-41.23
234.239	-157.23
234.51	-94.23
234.78	59.77
235.05	-24.23
235.321	-122.23
235.591	-75.23
235.861	62.77
236.131	-73.23
236.402	-197.23
236.672	-102.23
236.942	32.77
237.212	20.77
237.483	-76.23
237.753	9.77
238.023	167.77
238.293	17.77
238.563	-84.23
238.833	-124.23
239.103	53.77
239.374	-24.23
239.644	-153.23
239.914	-31.23
240.184	135.77
240.454	-4.23
240.724	-180.23
240.994	-81.23
241.264	9.77
241.534	45.77
241.804	-36.23
242.074	-105.23
242.344	-51.23
242.614	-60.23
242.884	-177.23
243.154	-138.23
243.424	24.77
243.694	70.77
243.964	-93.23
244.234	-72.23
244.503	127.77
244.773	1.77
245.043	-217.23
245.313	-148.23
245.583	129.77
245.853	95.77
246.123	-179.23
246.392	-110.23
246.662	-3.23
246.932	-33.23
247.202	-187.23
247.471	-71.23
247.741	256.77
248.011	84.77
248.281	-156.23
248.55	-106.23
248.82	52.77
249.09	-7.23
249.359	-77.23
249.629	-83.23
249.899	41.77
250.168	70.77
250.438	-15.23
250.708	-113.23
250.977	73.77
251.247	50.77
251.516	-119.23
251.786	-53.23
252.055	128.77
252.325	15.77
252.595	-109.23
252.864	-67.23
253.134	40.77
253.403	-38.23
253.673	-165.23
253.942	-104.23
254.212	43.77
254.481	-2.23
254.75	-158.23
255.02	-96.23
255.289	78.77
255.559	-22.23
255.828	-135.23
256.097	-29.23
256.367	30.77
256.636	-67.23
256.906	-147.23
257.175	-26.23
257.444	234.77
257.714	48.77
257.983	-95.23
258.252	-61.23
258.521	-7.23
258.791	39.77
259.06	-94.23
259.329	-42.23
259.598	61.77
259.868	-20.23
260.137	-152.23
260.406	-16.23
260.675	79.77
260.944	3.77
261.214	-132.23
261.483	-42.23
261.752	176.77
262.021	15.77
262.29	-174.23
262.559	-129.23
262.828	10.77
263.097	-56.23
263.366	-207.23
263.635	-87.23
263.905	142.77
264.174	14.77
264.443	-209.23
264.712	-122.23
264.981	36.77
265.25	-51.23
265.519	-152.23
265.788	-147.23
266.057	27.77
266.325	55.77
266.594	-57.23
266.863	-129.23
267.132	14.77
267.401	4.77
267.67	-213.23
267.939	-168.23
268.208	3.77
268.477	62.77
268.745	-133.23
269.014	-112.23
269.283	121.77
269.552	35.77
269.821	-128.23
270.089	-15.23
270.358	-14.23
270.627	-39.23
270.896	-134.23
271.164	-164.23
271.433	19.77
271.702	89.77
271.971	-156.23
272.239	-146.23
272.508	23.77
272.777	-32.23
273.045	-43.23
273.314	-37.23
273.583	83.77
273.851	-29.23
274.12	-162.23
274.388	-128.23
274.657	-14.23
274.926	-14.23
275.194	-164.23
275.463	-70.23
275.731	25.77
276	171.77
276.268	366.77
276.537	-80.23
276.805	12.77
277.074	26.77
277.342	-176.23
277.611	-112.23
277.879	95.77
278.148	19.77
278.416	-146.23
278.684	-122.23
278.953	-14.23
279.221	-38.23
279.49	-206.23
279.758	-124.23
280.026	-22.23
280.295	-1.23
280.563	-128.23
280.831	710.77
281.1	1817.77
281.368	178.77
281.636	-105.23
281.904	-128.23
282.173	-8.23
282.441	-45.23
282.709	-104.23
282.977	16.77
283.246	31.77
283.514	-60.23
283.782	-77.23
284.05	26.77
284.318	71.77
284.587	-33.23
284.855	-140.23
285.123	-63.23
285.391	66.77
285.659	30.77
285.927	-167.23
286.195	-87.23
286.463	46.77
286.732	-8.23
287	-128.23
287.268	-68.23
287.536	25.77
287.804	-44.23
288.072	-148.23
288.34	-88.23
288.608	65.77
288.876	-39.23
289.144	-121.23
289.412	-20.23
289.68	47.77
289.948	-23.23
290.215	-114.23
290.483	-121.23
290.751	87.77
291.019	91.77
291.287	-172.23
291.555	-128.23
291.823	22.77
292.091	-20.23
292.358	-75.23
292.626	-31.23
292.894	63.77
293.162	32.77
293.43	-135.23
293.697	-99.23
293.965	49.77
294.233	-40.23
294.501	-173.23
294.768	-81.23
295.036	46.77
295.304	17.77
295.572	-137.23
295.839	-115.23
296.107	109.77
296.375	2.77
296.642	-139.23
296.91	-130.23
297.178	37.77
297.445	158.77
297.713	95.77
297.98	-78.23
298.248	-39.23
298.516	-46.23
298.783	-132.23
299.051	-129.23
299.318	-2.23
299.586	-37.23
299.853	-97.23
300.121	-99.23
300.388	33.77
300.656	-16.23
300.923	-158.23
301.191	-69.23
301.458	34.77
301.726	-23.23
301.993	-156.23
302.26	-95.23
302.528	47.77
302.795	-21.23
303.063	-88.23
303.33	-73.23
303.597	16.77
303.865	6.77
304.132	-134.23
304.399	-121.23
304.667	-43.23
304.934	5.77
305.201	-120.23
305.469	-17.23
305.736	40.77
306.003	34.77
306.27	-52.23
306.538	-105.23
306.805	-17.23
307.072	-48.23
307.339	-88.23
307.606	-56.23
307.874	142.77
308.141	55.77
308.408	-144.23
308.675	-101.23
308.942	-46.23
309.209	-78.23
309.477	-139.23
309.744	-112.23
310.011	27.77
310.278	41.77
310.545	-52.23
310.812	-62.23
311.079	136.77
311.346	198.77
311.613	48.77
311.88	-41.23
312.147	-73.23
312.414	-48.23
312.681	-124.23
312.948	-41.23
313.215	107.77
313.482	63.77
313.749	-123.23
314.016	-215.23
314.283	-65.23
314.55	38.77
314.817	-113.23
315.083	-146.23
315.35	-97.23
315.617	-162.23
315.884	-156.23
316.151	38.77
316.418	149.77
316.684	-33.23
316.951	-204.23
317.218	-119.23
317.485	-14.23
317.752	-83.23
318.018	-138.23
318.285	-22.23
318.552	15.77
318.819	-81.23
319.085	-153.23
319.352	-59.23
319.619	27.77
319.885	-40.23
320.152	-198.23
320.419	-114.23
320.685	14.77
320.952	-29.23
321.219	-66.23
321.485	86.77
321.752	4.77
322.019	-59.23
322.285	21.77
322.552	-32.23
322.818	122.77
323.085	-28.23
323.351	-132.23
323.618	-21.23
323.884	38.77
324.151	-90.23
324.417	-58.23
324.684	-86.23
324.95	-65.23
325.217	-159.23
325.483	-191.23
325.75	-50.23
326.016	-1.23
326.283	-44.23
326.549	-202.23
326.815	-96.23
327.082	92.77
327.348	6.77
327.615	-117.23
327.881	-49.23
328.147	107.77
328.414	111.77
328.68	0.77
328.946	-63.23
329.212	6.77
329.479	-3.23
329.745	-124.23
330.011	-123.23
330.278	-5.23
330.544	-38.23
330.81	-30.23
331.076	-52.23
331.342	-52.23
331.609	-57.23
331.875	-94.23
332.141	-106.23
332.407	9.77
332.673	-8.23
332.94	-20.23
333.206	-57.23
333.472	33.77
333.738	61.77
334.004	-137.23
334.27	-39.23
334.536	-13.23
334.802	-65.23
335.068	-122.23
335.334	-7.23
335.6	12.77
335.866	-44.23
336.132	-181.23
336.398	-113.23
336.664	-41.23
336.93	-73.23
337.196	-105.23
337.462	-20.23
337.728	24.77
337.994	-33.23
338.26	-104.23
338.526	-42.23
338.792	-53.23
339.058	-57.23
339.324	-165.23
339.59	-38.23
339.856	30.77
340.121	-70.23
340.387	-148.23
340.653	59.77
340.919	138.77
341.185	48.77
341.45	-83.23
341.716	22.77
341.982	111.77
342.248	-62.23
342.514	-101.23
342.779	-5.23
343.045	33.77
343.311	-25.23
343.576	-103.23
343.842	-39.23
344.108	126.77
344.374	6.77
344.639	-121.23
344.905	-103.23
345.171	39.77
345.436	-81.23
345.702	-126.23
345.967	30.77
346.233	70.77
346.499	-0.23
346.764	-194.23
347.03	-100.23
347.295	-53.23
347.561	-7.23
347.826	-54.23
348.092	-134.23
348.357	-39.23
348.623	-47.23
348.888	-144.23
349.154	-112.23
349.419	38.77
349.685	1.77
349.95	-90.23
350.216	-81.23
350.481	18.77
350.747	-76.23
351.012	-200.23
351.277	-130.23
351.543	0.77
351.808	-38.23
352.074	-198.23
352.339	-159.23
352.604	6.77
352.87	-25.23
353.135	-145.23
353.4	-93.23
353.666	-24.23
353.931	-51.23
354.196	-186.23
354.461	-165.23
354.727	-3.23
354.992	-29.23
355.257	-162.23
355.522	-72.23
355.788	-35.23
356.053	15.77
356.318	-126.23
356.583	-132.23
356.848	75.77
357.113	170.77
357.379	-112.23
357.644	-123.23
357.909	73.77
358.174	96.77
358.439	-174.23
358.704	-109.23
358.969	12.77
359.234	17.77
359.499	-172.23
359.765	-87.23
360.03	23.77
360.295	33.77
360.56	-146.23
360.825	-78.23
361.09	119.77
361.355	-70.23
361.62	-98.23
361.885	-62.23
362.15	-81.23
362.415	-57.23
362.679	-140.23
362.944	28.77
363.209	33.77
363.474	31.77
363.739	-41.23
364.004	-131.23
364.269	-75.23
364.534	-22.23
364.799	-86.23
365.063	-75.23
365.328	33.77
365.593	28.77
365.858	-119.23
366.123	-130.23
366.387	13.77
366.652	-57.23
366.917	-169.23
367.182	-133.23
367.447	36.77
367.711	-15.23
367.976	-82.23
368.241	-15.23
368.505	42.77
368.77	-68.23
369.035	-93.23
369.299	-47.23
369.564	-23.23
369.829	-88.23
370.093	-133.23
370.358	-140.23
370.623	-22.23
370.887	-1.23
371.152	-152.23
371.416	-91.23
371.681	-47.23
371.946	-134.23
372.21	-160.23
372.475	-31.23
372.739	-14.23
373.004	-74.23
373.268	-105.23
373.533	-55.23
373.797	1.77
374.062	-16.23
374.326	-179.23
374.591	-93.23
374.855	-17.23
375.12	-81.23
375.384	-251.23
375.648	-157.23
375.913	-22.23
376.177	-5.23
376.442	-141.23
376.706	-120.23
376.97	11.77
377.235	-30.23
377.499	-96.23
377.763	-104.23
378.028	-108.23
378.292	-46.23
378.556	-125.23
378.821	-196.23
379.085	-102.23
379.349	-180.23
379.614	-254.23
379.878	-132.23
380.142	54.77
380.406	-29.23
380.671	-43.23
380.935	92.77
381.199	168.77
381.463	34.77
381.727	-27.23
381.991	-69.23
382.256	-4.23
382.52	-45.23
382.784	-41.23
383.048	71.77
383.312	0.77
383.576	-52.23
383.84	-165.23
384.104	-103.23
384.369	-20.23
384.633	-129.23
384.897	-236.23
385.161	-113.23
385.425	6.77
385.689	-71.23
385.953	-140.23
386.217	-162.23
386.481	-51.23
386.745	-36.23
387.009	-90.23
387.273	-121.23
387.537	-93.23
387.801	-69.23
388.064	-142.23
388.328	-48.23
388.592	-1.23
388.856	-82.23
389.12	-146.23
389.384	-72.23
389.648	-32.23
389.912	26.77
390.176	30.77
390.439	121.77
390.703	-53.23
390.967	-92.23
391.231	-160.23
391.495	-124.23
391.758	-72.23
392.022	-42.23
392.286	-179.23
392.55	-149.23
392.813	-35.23
393.077	21.77
393.341	-66.23
393.605	0.77
393.868	-38.23
394.132	-61.23
394.396	-93.23
394.659	35.77
394.923	-32.23
395.187	-87.23
395.45	-104.23
395.714	-61.23
395.978	-40.23
396.241	-37.23
396.505	-134.23
396.768	-71.23
397.032	-6.23
397.295	-5.23
397.559	-94.23
397.823	-122.23
398.086	2.77
398.35	-69.23
398.613	-174.23
398.877	-32.23
399.14	84.77
399.404	81.77
399.667	-13.23
399.931	-96.23
400.194	-14.23
400.457	-44.23
400.721	-79.23
400.984	14.77
401.248	-42.23
401.511	-63.23
401.775	-173.23
402.038	-142.23
402.301	63.77
402.565	8.77
402.828	-206.23
403.091	-129.23
403.355	-20.23
403.618	-17.23
403.881	-31.23
404.145	-68.23
404.408	5.77
404.671	-40.23
404.934	-45.23
405.198	-17.23
405.461	-15.23
405.724	17.77
405.987	-16.23
406.251	14.77
406.514	96.77
406.777	-47.23
407.04	-140.23
407.303	-128.23
407.567	-1.23
407.83	60.77
408.093	-151.23
408.356	-38.23
408.619	28.77
408.882	72.77
409.145	-31.23
409.408	-72.23
409.672	16.77
409.935	-40.23
410.198	-171.23
410.461	-73.23
410.724	96.77
410.987	-9.23
411.25	-157.23
411.513	-31.23
411.776	41.77
412.039	-81.23
412.302	-134.23
412.565	-120.23
412.828	-72.23
413.091	-88.23
413.354	-160.23
413.617	-133.23
413.879	-53.23
414.142	-23.23
414.405	-163.23
414.668	-96.23
414.931	37.77
415.194	9.77
415.457	-145.23
415.72	-73.23
415.983	-12.23
416.245	-17.23
416.508	-133.23
416.771	-163.23
417.034	-15.23
417.297	3.77
417.559	-40.23
417.822	-73.23
418.085	15.77
418.348	-3.23
418.61	-159.23
418.873	-142.23
419.136	-98.23
419.399	-107.23
419.661	-93.23
419.924	-101.23
420.187	-10.23
420.449	-55.23
420.712	-121.23
420.975	-147.23
421.237	-46.23
421.5	-49.23
421.762	-15.23
422.025	25.77
422.288	59.77
422.55	-115.23
422.813	-198.23
423.075	-110.23
423.338	-41.23
423.601	-14.23
423.863	-56.23
424.126	-54.23
424.388	61.77
424.651	-6.23
424.913	-74.23
425.176	-79.23
425.438	-39.23
425.701	21.77
425.963	-119.23
426.225	-168.23
426.488	-53.23
426.75	-83.23
427.013	-166.23
427.275	-110.23
427.538	-85.23
427.8	-81.23
428.062	-147.23
428.325	-64.23
428.587	38.77
428.849	-33.23
429.112	-121.23
429.374	-137.23
429.636	-81.23
429.899	12.77
430.161	-104.23
430.423	-81.23
430.686	15.77
430.948	0.77
431.21	-136.23
431.472	-149.23
431.735	-73.23
431.997	-94.23
432.259	-57.23
432.521	-134.23
432.783	-27.23
433.046	-41.23
433.308	-136.23
433.57	-101.23
433.832	122.77
434.094	-72.23
434.356	-192.23
434.618	-111.23
434.881	-57.23
435.143	-114.23
435.405	-78.23
435.667	-39.23
435.929	-28.23
436.191	-62.23
436.453	-140.23
436.715	-54.23
436.977	11.77
437.239	-46.23
437.501	-174.23
437.763	-151.23
438.025	-16.23
438.287	-39.23
438.549	-128.23
438.811	-85.23
439.073	-38.23
439.335	-101.23
439.597	-123.23
439.859	-51.23
440.121	56.77
440.383	-129.23
440.645	-141.23
440.907	-58.23
441.168	-13.23
441.43	-81.23
441.692	-178.23
441.954	-134.23
442.216	-49.23
442.478	-79.23
442.74	-190.23
443.001	-78.23
443.263	52.77
443.525	1.77
443.787	-129.23
444.048	-109.23
444.31	-80.23
444.572	-88.23
444.834	-108.23
445.095	-113.23
445.357	29.77
445.619	-24.23
445.881	-227.23
446.142	-138.23
446.404	-83.23
446.666	-70.23
446.927	-107.23
447.189	41.77
447.451	41.77
447.712	-36.23
447.974	-234.23
448.235	-190.23
448.497	-46.23
448.759	-108.23
449.02	-177.23
449.282	-201.23
449.543	-21.23
449.805	32.77
450.066	-203.23
450.328	-97.23
450.59	96.77
450.851	-41.23
451.113	-79.23
451.374	-145.23
451.636	-14.23
451.897	9.77
452.158	-75.23
452.42	29.77
452.681	75.77
452.943	-96.23
453.204	-179.23
453.466	-177.23
453.727	-107.23
453.988	-51.23
454.25	-172.23
454.511	-196.23
454.773	-80.23
455.034	75.77
455.295	-150.23
455.557	-165.23
455.818	-53.23
456.079	-47.23
456.341	51.77
456.602	20.77
456.863	13.77
457.124	-53.23
457.386	-170.23
457.647	-169.23
457.908	-75.23
458.169	30.77
458.431	-181.23
458.692	-184.23
458.953	-66.23
459.214	-103.23
459.476	-114.23
459.737	-37.23
459.998	12.77
460.259	-88.23
460.52	-179.23
460.781	-133.23
461.043	51.77
461.304	-91.23
461.565	-194.23
461.826	-153.23
462.087	-39.23
462.348	-4.23
462.609	-134.23
462.87	-73.23
463.131	-104.23
463.392	-22.23
463.653	-103.23
463.914	-67.23
464.175	-43.23
464.436	-98.23
464.697	-145.23
464.958	-124.23
465.219	-25.23
465.48	-48.23
465.741	-61.23
466.002	-124.23
466.263	-57.23
466.524	-51.23
466.785	-153.23
467.046	-116.23
467.307	-34.23
467.568	-108.23
467.829	-124.23
468.089	-78.23
468.35	-40.23
468.611	-87.23
468.872	-166.23
469.133	-54.23
469.394	20.77
469.655	53.77
469.915	-132.23
470.176	-182.23
470.437	-132.23
470.698	-57.23
470.958	-126.23
471.219	-180.23
471.48	-84.23
471.741	-102.23
472.001	-168.23
472.262	-134.23
472.523	3.77
472.784	23.77
473.044	-120.23
473.305	-86.23
473.566	20.77
473.826	-8.23
474.087	-129.23
474.348	-108.23
474.608	-49.23
474.869	9.77
475.129	-117.23
475.39	-157.23
475.651	-76.23
475.911	-36.23
476.172	-171.23
476.432	-64.23
476.693	83.77
476.953	-21.23
477.214	-29.23
477.475	-28.23
477.735	-31.23
477.996	-6.23
478.256	-190.23
478.517	-164.23
478.777	-66.23
479.038	-0.23
479.298	-21.23
479.558	-107.23
479.819	37.77
480.079	48.77
480.34	-75.23
480.6	-126.23
480.861	-7.23
481.121	-31.23
481.381	-140.23
481.642	-68.23
481.902	-65.23
482.162	-125.23
482.423	-114.23
482.683	-44.23
482.943	-0.23
483.204	-91.23
483.464	-112.23
483.724	-92.23
483.985	-51.23
484.245	-1.23
484.505	-102.23
484.765	-31.23
485.026	48.77
485.286	16.77
485.546	-69.23
485.806	-9.23
486.067	16.77
486.327	-114.23
486.587	-183.23
486.847	-160.23
487.107	-24.23
487.368	-16.23
487.628	-83.23
487.888	-83.23
488.148	-11.23
488.408	-88.23
488.668	-83.23
488.928	-40.23
489.188	-21.23
489.449	64.77
489.709	-114.23
489.969	-105.23
490.229	-2.23
490.489	-36.23
490.749	-120.23
491.009	-194.23
491.269	-102.23
491.529	-101.23
491.789	-166.23
492.049	-66.23
492.309	46.77
492.569	-75.23
492.829	-99.23
493.089	-121.23
493.349	44.77
493.609	-37.23
493.869	-141.23
494.129	-67.23
494.389	53.77
494.648	-84.23
494.908	-186.23
495.168	-90.23
495.428	44.77
495.688	-46.23
495.948	-216.23
496.208	-188.23
496.467	-116.23
496.727	-76.23
496.987	-85.23
497.247	-88.23
497.507	-9.23
497.767	31.77
498.026	-165.23
498.286	-64.23
498.546	133.77
498.806	-4.23
499.065	40.77
499.325	-35.23
499.585	-53.23
499.845	-50.23
500.104	-46.23
500.364	46.77
500.624	-8.23
500.883	-73.23
501.143	-25.23
501.403	19.77
501.662	81.77
501.922	-11.23
502.182	-145.23
502.441	-164.23
502.701	-74.23
502.96	34.77
503.22	-55.23
503.48	-99.23
503.739	-38.23
503.999	-73.23
504.258	-144.23
504.518	-82.23
504.777	27.77
505.037	-30.23
505.296	-101.23
505.556	-123.23
505.815	29.77
506.075	113.77
506.334	-5.23
506.594	-145.23
506.853	-101.23
507.113	-90.23
507.372	-227.23
507.632	-165.23
507.891	-63.23
508.151	-11.23
508.41	-164.23
508.669	-122.23
508.929	24.77
509.188	-47.23
509.447	-115.23
509.707	-131.23
509.966	-55.23
510.226	-44.23
510.485	-96.23
510.744	-78.23
511.004	8.77
511.263	-78.23
511.522	-167.23
511.781	-131.23
512.041	3.77
512.3	-63.23
512.559	-18.23
512.818	15.77
513.078	5.77
513.337	-27.23
513.596	-112.23
513.855	-106.23
514.115	27.77
514.374	-43.23
514.633	-173.23
514.892	-184.23
515.151	-24.23
515.41	23.77
515.67	-85.23
515.929	-128.23
516.188	-34.23
516.447	-76.23
516.706	-137.23
516.965	-109.23
517.224	-73.23
517.483	-79.23
517.743	-117.23
518.002	-61.23
518.261	35.77
518.52	-33.23
518.779	-148.23
519.038	-132.23
519.297	-85.23
519.556	-98.23
519.815	-181.23
520.074	-166.23
520.333	-64.23
520.592	-80.23
520.851	-159.23
521.11	-43.23
521.369	111.77
521.628	-63.23
521.887	-162.23
522.145	-96.23
522.404	-30.23
522.663	-46.23
522.922	-206.23
523.181	-188.23
523.44	-42.23
523.699	-15.23
523.958	-182.23
524.217	-148.23
524.475	-119.23
524.734	-159.23
524.993	-183.23
525.252	-109.23
525.511	-27.23
525.769	-93.23
526.028	-170.23
526.287	-103.23
526.546	-34.23
526.805	-51.23
527.063	-145.23
527.322	-172.23
527.581	-73.23
527.839	-67.23
528.098	-87.23
528.357	-69.23
528.616	-45.23
528.874	-68.23
529.133	-106.23
529.392	-80.23
529.65	-31.23
529.909	-69.23
530.168	-161.23
530.426	-125.23
530.685	10.77
530.943	-36.23
531.202	-160.23
531.461	-149.23
531.719	-18.23
531.978	-62.23
532.236	-142.23
532.495	-61.23
532.753	-7.23
533.012	-87.23
533.271	-169.23
533.529	-172.23
533.788	-96.23
534.046	-167.23
534.305	-194.23
534.563	29.77
534.822	101.77
535.08	-23.23
535.338	-128.23
535.597	-89.23
535.855	3.77
536.114	-64.23
536.372	-162.23
536.631	-97.23
536.889	4.77
537.147	-48.23
537.406	-228.23
537.664	-108.23
537.923	-54.23
538.181	-30.23
538.439	-173.23
538.698	-35.23
538.956	-35.23
539.214	-74.23
539.473	-122.23
539.731	-90.23
539.989	-25.23
540.248	-69.23
540.506	-141.23
540.764	-129.23
541.022	-31.23
541.281	-7.23
541.539	-119.23
541.797	-168.23
542.055	-34.23
542.314	54.77
542.572	3.77
542.83	-119.23
543.088	-14.23
543.346	-92.23
543.604	-181.23
543.863	-80.23
544.121	60.77
544.379	-37.23
544.637	-164.23
544.895	-44.23
545.153	71.77
545.411	-69.23
545.67	-252.23
545.928	-208.23
546.186	-47.23
546.444	16.77
546.702	-84.23
546.96	-58.23
547.218	-5.23
547.476	-73.23
547.734	-148.23
547.992	-84.23
548.25	11.77
548.508	-87.23
548.766	-114.23
549.024	-111.23
549.282	-97.23
549.54	-78.23
549.798	-96.23
550.056	-110.23
550.314	-13.23
550.572	-63.23
550.83	-209.23
551.088	-97.23
551.346	26.77
551.603	20.77
551.861	-155.23
552.119	-55.23
552.377	49.77
552.635	-58.23
552.893	-196.23
553.151	-185.23
553.409	-38.23
553.666	-36.23
553.924	-137.23
554.182	-143.23
554.44	-16.23
554.698	53.77
554.955	-100.23
555.213	-89.23
555.471	13.77
555.729	-58.23
555.986	-234.23
556.244	-122.23
556.502	103.77
556.76	-33.23
557.017	-118.23
557.275	-54.23
557.533	71.77
557.79	25.77
558.048	-163.23
558.306	-84.23
558.563	-2.23
558.821	-115.23
559.079	-134.23
559.336	-104.23
559.594	-54.23
559.852	-138.23
560.109	-182.23
560.367	-75.23
560.624	-13.23
560.882	-68.23
561.14	-76.23
561.397	16.77
561.655	-77.23
561.912	-55.23
562.17	-169.23
562.427	-92.23
562.685	-42.23
562.942	-35.23
563.2	-164.23
563.457	-78.23
563.715	-26.23
563.972	1.77
564.23	-179.23
564.487	-200.23
564.745	-54.23
565.002	-8.23
565.26	-119.23
565.517	-132.23
565.774	-57.23
566.032	-42.23
566.289	-128.23
566.547	-103.23
566.804	11.77
567.061	-21.23
567.319	-146.23
567.576	-70.23
567.833	69.77
568.091	114.77
568.348	-57.23
568.605	-35.23
568.863	-1.23
569.12	-17.23
569.377	-117.23
569.635	-125.23
569.892	-65.23
570.149	-92.23
570.406	-206.23
570.664	-164.23
570.921	-38.23
571.178	-126.23
571.435	-105.23
571.693	-96.23
571.95	-19.23
572.207	-81.23
572.464	-109.23
572.721	-19.23
572.979	80.77
573.236	6.77
573.493	-105.23
573.75	-78.23
574.007	34.77
574.264	-46.23
574.521	-109.23
574.779	-86.23
575.036	-17.23
575.293	-74.23
575.55	-129.23
575.807	-116.23
576.064	-3.23
576.321	-52.23
576.578	-215.23
576.835	-155.23
577.092	59.77
577.349	-9.23
577.606	-211.23
577.863	-140.23
578.12	-22.23
578.377	-28.23
578.634	-224.23
578.891	-135.23
579.148	-39.23
579.405	-106.23
579.662	-186.23
579.919	-113.23
580.176	-67.23
580.433	-52.23
580.69	-103.23
580.947	-112.23
581.204	-21.23
581.461	-45.23
581.717	-143.23
581.974	32.77
582.231	28.77
582.488	-74.23
582.745	-138.23
583.002	-124.23
583.259	17.77
583.515	-32.23
583.772	-194.23
584.029	-147.23
584.286	16.77
584.543	-151.23
584.799	-180.23
585.056	-100.23
585.313	-10.23
585.57	27.77
585.826	-121.23
586.083	-38.23
586.34	136.77
586.597	-60.23
586.853	-212.23
587.11	-174.23
587.367	37.77
587.623	91.77
587.88	-26.23
588.137	-107.23
588.393	-3.23
588.65	-82.23
588.907	-170.23
589.163	-95.23
589.42	-54.23
589.677	-24.23
589.933	-148.23
590.19	-49.23
590.446	61.77
590.703	30.77
590.96	-194.23
591.216	-218.23
591.473	-92.23
591.729	-69.23
591.986	-84.23
592.242	-25.23
592.499	169.77
592.755	21.77
593.012	-191.23
593.268	-105.23
593.525	-41.23
593.781	-29.23
594.038	-134.23
594.294	-104.23
594.551	-69.23
594.807	-134.23
595.064	-151.23
595.32	-153.23
595.576	-38.23
595.833	22.77
596.089	-106.23
596.346	-18.23
596.602	30.77
596.858	76.77
597.115	-94.23
597.371	-24.23
597.628	-20.23
597.884	-74.23
598.14	-148.23
598.397	0.77
598.653	85.77
598.909	-44.23
599.166	-175.23
599.422	-116.23
599.678	-17.23
599.934	-40.23
600.191	-159.23
600.447	-128.23
600.703	-69.23
600.959	-86.23
601.216	-226.23
601.472	-195.23
601.728	-64.23
601.984	-96.23
602.241	-216.23
602.497	-115.23
602.753	14.77
603.009	-54.23
603.265	-164.23
603.521	-21.23
603.778	65.77
604.034	-121.23
604.29	-195.23
604.546	-117.23
604.802	-36.23
605.058	-106.23
605.314	-197.23
605.571	-123.23
605.827	-96.23
606.083	-88.23
606.339	-178.23
606.595	-75.23
606.851	19.77
607.107	43.77
607.363	-157.23
607.619	-118.23
607.875	81.77
608.131	26.77
608.387	-222.23
608.643	-148.23
608.899	-62.23
609.155	-64.23
609.411	-85.23
609.667	-64.23
609.923	-50.23
610.179	-98.23
610.435	-266.23
610.691	-182.23
610.947	-16.23
611.203	-92.23
611.459	-144.23
611.714	-47.23
611.97	89.77
612.226	1.77
612.482	-178.23
612.738	-79.23
612.994	130.77
613.25	-13.23
613.505	-170.23
613.761	-117.23
614.017	-36.23
614.273	-54.23
614.529	-116.23
614.785	-168.23
615.04	-56.23
615.296	-38.23
615.552	-116.23
615.808	-78.23
616.063	-15.23
616.319	-28.23
616.575	-140.23
616.831	-99.23
617.086	118.77
617.342	69.77
617.598	-61.23
617.854	-9.23
618.109	54.77
618.365	-115.23
618.621	-194.23
618.876	-67.23
619.132	29.77
619.388	-22.23
619.643	-176.23
619.899	-75.23
620.155	8.77
620.41	-4.23
620.666	-128.23
620.921	-84.23
621.177	44.77
621.433	73.77
621.688	-36.23
621.944	-120.23
622.199	-47.23
622.455	-43.23
622.71	-142.23
622.966	-116.23
623.221	-103.23
623.477	-94.23
623.732	-80.23
623.988	-151.23
624.243	-21.23
624.499	-7.23
624.754	-174.23
625.01	-149.23
625.265	-43.23
625.521	44.77
625.776	-79.23
626.032	-54.23
626.287	-22.23
626.543	-76.23
626.798	-126.23
627.053	-79.23
627.309	-22.23
627.564	-76.23
627.82	-76.23
628.075	1.77
628.33	-12.23
628.586	-137.23
628.841	-240.23
629.096	-111.23
629.352	-32.23
629.607	-126.23
629.862	-157.23
630.118	-56.23
630.373	-81.23
630.628	-38.23
630.884	-163.23
631.139	-113.23
631.394	30.77
631.649	-33.23
631.905	-155.23
632.16	-67.23
632.415	111.77
632.67	-46.23
632.926	-176.23
633.181	-166.23
633.436	-12.23
633.691	-89.23
633.946	-226.23
634.202	-190.23
634.457	-30.23
634.712	-75.23
634.967	-169.23
635.222	-216.23
635.477	-103.23
635.733	-95.23
635.988	-194.23
636.243	-181.23
636.498	-19.23
636.753	-45.23
637.008	-157.23
637.263	-84.23
637.518	-8.23
637.773	-50.23
638.028	-116.23
638.283	-83.23
638.539	32.77
638.794	-17.23
639.049	-156.23
639.304	-158.23
639.559	-84.23
639.814	-93.23
640.069	-158.23
640.324	-116.23
640.579	-5.23
640.834	-32.23
641.089	-156.23
641.344	-93.23
641.598	121.77
641.853	6.77
642.108	-149.23
642.363	-192.23
642.618	-14.23
642.873	-88.23
643.128	-199.23
643.383	-125.23
643.638	-17.23
643.893	27.77
644.148	-55.23
644.402	-126.23
644.657	-3.23
644.912	-80.23
645.167	-119.23
645.422	-42.23
645.677	-35.23
645.931	9.77
646.186	9.77
646.441	-70.23
646.696	-88.23
646.951	-83.23
647.205	-115.23
647.46	-111.23
647.715	-82.23
647.97	73.77
648.224	192.77
648.479	-16.23
648.734	76.77
648.989	14.77
649.243	-74.23
649.498	-96.23
649.753	-58.23
650.007	-28.23
650.262	-90.23
650.517	-98.23
650.771	-53.23
651.026	-98.23
651.281	-210.23
651.535	-74.23
651.79	-66.23
652.045	-72.23
652.299	-125.23
652.554	-130.23
652.809	-24.23
653.063	124.77
653.318	-5.23
653.572	-101.23
653.827	46.77
654.081	-33.23
654.336	-202.23
654.591	-166.23
654.845	-44.23
655.1	-87.23
655.354	-131.23
655.609	-65.23
655.863	20.77
656.118	-6.23
656.372	-144.23
656.627	-131.23
656.881	-4.23
657.136	-48.23
657.39	-162.23
657.645	-51.23
657.899	94.77
658.153	-22.23
658.408	-117.23
658.662	-65.23
658.917	-37.23
659.171	-122.23
659.426	-181.23
659.68	-120.23
659.934	-9.23
660.189	-41.23
660.443	-148.23
660.697	7.77
660.952	75.77
661.206	-62.23
661.46	-212.23
661.715	-124.23
661.969	-4.23
662.223	-42.23
662.478	-124.23
662.732	-78.23
662.986	-36.23
663.241	-25.23
663.495	-162.23
663.749	-114.23
664.003	5.77
664.258	-54.23
664.512	-131.23
664.766	-85.23
665.02	-29.23
665.275	-2.23
665.529	-165.23
665.783	-125.23
666.037	-45.23
666.291	-67.23
666.546	-126.23
666.8	-99.23
667.054	-91.23
667.308	-58.23
667.562	-226.23
667.816	-146.23
668.071	-40.23
668.325	-150.23
668.579	-157.23
668.833	-82.23
669.087	40.77
669.341	-48.23
669.595	-181.23
669.849	-118.23
670.103	-61.23
670.357	-73.23
670.612	-106.23
670.866	-113.23
671.12	-48.23
671.374	-70.23
671.628	-101.23
671.882	-142.23
672.136	-54.23
672.39	-46.23
672.644	-206.23
672.898	-60.23
673.152	90.77
673.406	1.77
673.66	-90.23
673.914	-25.23
674.168	35.77
674.422	-58.23
674.675	-163.23
674.929	-90.23
675.183	29.77
675.437	-21.23
675.691	-72.23
675.945	-16.23
676.199	86.77
676.453	-25.23
676.707	-170.23
676.961	-159.23
677.214	-67.23
677.468	-51.23
677.722	-47.23
677.976	-61.23
678.23	-26.23
678.484	-21.23
678.737	-169.23
678.991	-108.23
679.245	-40.23
679.499	-61.23
679.753	-155.23
680.006	-96.23
680.26	29.77
680.514	32.77
680.768	-124.23
681.021	-40.23
681.275	-21.23
681.529	-30.23
681.783	-93.23
682.036	-88.23
682.29	-109.23
682.544	-68.23
682.797	-93.23
683.051	-128.23
683.305	-81.23
683.559	-68.23
683.812	-66.23
684.066	-66.23
684.32	-26.23
684.573	-73.23
684.827	-79.23
685.08	-39.23
685.334	55.77
685.588	-33.23
685.841	-159.23
686.095	-32.23
686.348	-7.23
686.602	-12.23
686.856	-34.23
687.109	-96.23
687.363	-59.23
687.616	-97.23
687.87	-233.23
688.123	-165.23
688.377	-52.23
688.63	-21.23
688.884	-25.23
689.137	78.77
689.391	68.77
689.644	-81.23
689.898	-173.23
690.151	-159.23
690.405	-33.23
690.658	-41.23
690.912	-114.23
691.165	-119.23
691.419	-53.23
691.672	-16.23
691.926	-102.23
692.179	-94.23
692.432	-27.23
692.686	-69.23
692.939	-196.23
693.193	-149.23
693.446	34.77
693.699	4.77
693.953	-29.23
694.206	-83.23
694.459	19.77
694.713	70.77
694.966	-98.23
695.219	-113.23
695.473	-33.23
695.726	-112.23
695.979	-169.23
696.233	-64.23
696.486	1.77
696.739	-32.23
696.992	-142.23
697.246	-23.23
697.499	47.77
697.752	-125.23
698.006	-165.23
698.259	-49.23
698.512	-59.23
698.765	-96.23
699.018	-132.23
699.272	-49.23
699.525	-68.23
699.778	-123.23
700.031	-165.23
700.284	-152.23
700.538	-36.23
700.791	-37.23
701.044	-103.23
701.297	-87.23
701.55	-57.23
701.803	-84.23
702.056	-189.23
702.31	-114.23
702.563	-6.23
702.816	-92.23
703.069	-241.23
703.322	-158.23
703.575	-44.23
703.828	-12.23
704.081	-120.23
704.334	-119.23
704.587	-51.23
704.84	-124.23
705.093	-141.23
705.346	14.77
705.599	-9.23
705.853	-21.23
706.106	-0.23
706.359	249.77
706.612	-2.23
706.865	49.77
707.118	-139.23
707.37	-101.23
707.623	20.77
707.876	-11.23
708.129	-61.23
708.382	31.77
708.635	118.77
708.888	-62.23
709.141	-173.23
709.394	-74.23
709.647	29.77
709.9	-92.23
710.153	-208.23
710.406	-81.23
710.658	15.77
710.911	-61.23
711.164	-163.23
711.417	-122.23
711.67	-84.23
711.923	-32.23
712.176	-164.23
712.428	-129.23
712.681	-56.23
712.934	-20.23
713.187	-99.23
713.44	-161.23
713.692	-15.23
713.945	-85.23
714.198	-188.23
714.451	-194.23
714.704	-35.23
714.956	15.77
715.209	20.77
715.462	-26.23
715.715	-2.23
715.967	-8.23
716.22	-157.23
716.473	-149.23
716.725	26.77
716.978	-36.23
717.231	-53.23
717.484	-23.23
717.736	-86.23
717.989	-144.23
718.242	-232.23
718.494	-117.23
718.747	7.77
718.999	-67.23
719.252	-53.23
719.505	-39.23
719.757	-24.23
720.01	-51.23
720.263	-111.23
720.515	-99.23
720.768	6.77
721.02	-13.23
721.273	-153.23
721.525	-206.23
721.778	-90.23
722.031	-6.23
722.283	-157.23
722.536	-129.23
722.788	-47.23
723.041	-80.23
723.293	-155.23
723.546	-166.23
723.798	-54.23
724.051	10.77
724.303	-31.23
724.556	-26.23
724.808	105.77
725.061	37.77
725.313	-78.23
725.566	-82.23
725.818	-38.23
726.071	-57.23
726.323	-196.23
726.575	-110.23
726.828	36.77
727.08	35.77
727.333	-132.23
727.585	-118.23
727.837	-44.23
728.09	-45.23
728.342	-199.23
728.595	-95.23
728.847	78.77
729.099	-151.23
729.352	-172.23
729.604	-147.23
729.856	-38.23
730.109	-70.23
730.361	-158.23
730.613	-51.23
730.866	43.77
731.118	-109.23
731.37	-167.23
731.622	-131.23
731.875	-64.23
732.127	1.77
732.379	-62.23
732.631	14.77
732.884	0.77
733.136	-88.23
733.388	-172.23
733.64	-101.23
733.893	30.77
734.145	-37.23
734.397	-167.23
734.649	-158.23
734.901	-53.23
735.154	-119.23
735.406	-206.23
735.658	-151.23
735.91	-4.23
736.162	-76.23
736.414	-179.23
736.667	-73.23
736.919	-29.23
737.171	-129.23
737.423	-164.23
737.675	-113.23
737.927	-3.23
738.179	-57.23
738.431	-87.23
738.684	-156.23
738.936	-78.23
739.188	-27.23
739.44	-187.23
739.692	-180.23
739.944	-140.23
740.196	-110.23
740.448	-172.23
740.7	-170.23
740.952	-102.23
741.204	-91.23
741.456	-189.23
741.708	-110.23
741.96	-98.23
742.212	-36.23
742.464	-49.23
742.716	-179.23
742.968	-95.23
743.22	-143.23
743.472	-205.23
743.724	-127.23
743.976	7.77
744.228	16.77
744.48	-215.23
744.732	-183.23
744.983	-29.23
745.235	-44.23
745.487	-118.23
745.739	-82.23
745.991	-110.23
746.243	-28.23
746.495	-197.23
746.747	-192.23
746.999	-81.23
747.25	-80.23
747.502	-124.23
747.754	-26.23
748.006	-76.23
748.258	18.77
748.51	23.77
748.761	-123.23
749.013	-58.23
749.265	27.77
749.517	-17.23
749.768	30.77
750.02	54.77
750.272	-0.23
750.524	-151.23
750.776	-197.23
751.027	-2.23
751.279	19.77
751.531	-188.23
751.782	-94.23
752.034	2.77
752.286	-110.23
752.538	-208.23
752.789	-97.23
753.041	-24.23
753.293	-63.23
753.544	-141.23
753.796	-118.23
754.048	-6.23
754.299	-22.23
754.551	-82.23
754.803	-128.23
755.054	-101.23
755.306	-44.23
755.558	-148.23
755.809	-126.23
756.061	32.77
756.312	-88.23
756.564	-104.23
756.816	-62.23
757.067	-79.23
757.319	-97.23
757.57	-124.23
757.822	-46.23
758.073	34.77
758.325	-12.23
758.577	-165.23
758.828	-157.23
759.08	63.77
759.331	54.77
759.583	-142.23
759.834	-45.23
760.086	-62.23
760.337	-81.23
760.589	-130.23
760.84	-141.23
761.092	-56.23
761.343	-63.23
761.595	-213.23
761.846	-68.23
762.097	-41.23
762.349	-97.23
762.6	-239.23
762.852	-92.23
763.103	51.77
763.355	-88.23
763.606	-188.23
763.857	-41.23
764.109	69.77
764.36	-41.23
764.612	-116.23
764.863	-11.23
765.114	-1.23
765.366	-144.23
765.617	-224.23
765.868	-151.23
766.12	7.77
766.371	1.77
766.622	-185.23
766.874	-126.23
767.125	29.77
767.376	-87.23
767.628	-166.23
767.879	-115.23
768.13	-22.23
768.381	-44.23
768.633	-85.23
768.884	-95.23
769.135	-11.23
769.386	-25.23
769.638	-87.23
769.889	-68.23
770.14	-43.23
770.391	-129.23
770.643	-175.23
770.894	-173.23
771.145	-64.23
771.396	-124.23
771.647	-201.23
771.899	-80.23
772.15	-5.23
772.401	-64.23
772.652	-209.23
772.903	-161.23
773.154	179.77
773.406	424.77
773.657	-106.23
773.908	-120.23
774.159	-29.23
774.41	-17.23
774.661	-150.23
774.912	-107.23
775.163	51.77
775.414	49.77
775.666	-184.23
775.917	-173.23
776.168	-109.23
776.419	-97.23
776.67	-172.23
776.921	-174.23
777.172	-89.23
777.423	-53.23
777.674	-22.23
777.925	-54.23
778.176	-109.23
778.427	-98.23
778.678	-176.23
778.929	-138.23
779.18	-53.23
779.431	-128.23
779.682	-127.23
779.933	-90.23
780.184	-60.23
780.435	-86.23
780.686	-118.23
780.937	-64.23
781.188	-26.23
781.439	61.77
781.69	4.77
781.941	-53.23
782.191	-32.23
782.442	-66.23
782.693	-154.23
782.944	-165.23
783.195	-72.23
783.446	-53.23
783.697	-34.23
783.948	-143.23
784.199	-113.23
784.449	-123.23
784.7	-113.23
784.951	-86.23
785.202	52.77
785.453	16.77
785.704	-179.23
785.954	-189.23
786.205	-99.23
786.456	-164.23
786.707	-246.23
786.958	-196.23
787.208	-89.23
787.459	-125.23
787.71	-108.23
787.961	-134.23
788.211	-81.23
788.462	-77.23
788.713	-116.23
788.964	-145.23
789.214	-42.23
789.465	-35.23
789.716	-84.23
789.967	-99.23
790.217	-110.23
790.468	-138.23
790.719	-189.23
790.969	-150.23
791.22	-101.23
791.471	-37.23
791.721	-4.23
791.972	-109.23
792.223	-27.23
792.473	-110.23
792.724	-126.23
792.975	-152.23
793.225	-62.23
793.476	-95.23
793.726	-166.23
793.977	-53.23
794.228	65.77
794.478	-49.23
794.729	-143.23
794.979	-48.23
795.23	-22.23
795.481	-61.23
795.731	-164.23
795.982	-110.23
796.232	-120.23
796.483	-166.23
796.733	-194.23
796.984	-144.23
797.234	-80.23
797.485	-60.23
797.735	-191.23
797.986	-163.23
798.236	-23.23
798.487	-108.23
798.737	-109.23
798.988	-19.23
799.238	30.77
799.489	-78.23
799.739	-176.23
799.99	-100.23
800.24	-10.23
800.491	47.77
800.741	-88.23
800.991	-141.23
801.242	-78.23
801.492	-61.23
801.743	-111.23
801.993	15.77
802.244	86.77
802.494	-80.23
802.744	-90.23
802.995	-58.23
803.245	-42.23
803.495	-81.23
803.746	-134.23
803.996	-53.23
804.246	-56.23
804.497	-60.23
804.747	-179.23
804.997	-114.23
805.248	-91.23
805.498	-122.23
805.748	-99.23
805.999	-186.23
806.249	-108.23
806.499	-117.23
806.75	-202.23
807	-180.23
807.25	-60.23
807.5	-114.23
807.751	-114.23
808.001	-44.23
808.251	-40.23
808.501	14.77
808.752	15.77
809.002	-53.23
809.252	-62.23
809.502	-110.23
809.752	-148.23
810.003	-196.23
810.253	-101.23
810.503	-65.23
810.753	-33.23
811.003	-26.23
811.254	2.77
811.504	-72.23
811.754	-110.23
812.004	-92.23
812.254	135.77
812.504	-33.23
812.754	-128.23
813.005	-51.23
813.255	16.77
813.505	-45.23
813.755	-138.23
814.005	-89.23
814.255	-72.23
814.505	-89.23
814.755	-194.23
815.005	-160.23
815.255	-54.23
815.505	-96.23
815.756	-48.23
816.006	-66.23
816.256	-110.23
816.506	-161.23
816.756	-214.23
817.006	-161.23
817.256	-49.23
817.506	-58.23
817.756	-120.23
818.006	-115.23
818.256	-58.23
818.506	-77.23
818.756	-188.23
819.006	-127.23
819.256	-54.23
819.506	-113.23
819.756	-177.23
820.006	-86.23
820.255	-21.23
820.505	-56.23
820.755	-180.23
821.005	-132.23
821.255	-7.23
821.505	-56.23
821.755	-139.23
822.005	-44.23
822.255	16.77
822.505	-85.23
822.755	-69.23
823.004	-192.23
823.254	-162.23
823.504	-84.23
823.754	-77.23
824.004	-138.23
824.254	-41.23
824.504	-50.23
824.753	-22.23
825.003	-34.23
825.253	9.77
825.503	-94.23
825.753	-137.23
826.002	-66.23
826.252	149.77
826.502	-51.23
826.752	-139.23
827.002	-111.23
827.251	-17.23
827.501	-90.23
827.751	-164.23
828.001	-118.23
828.25	-9.23
828.5	-161.23
828.75	-200.23
829	-110.23
829.249	28.77
829.499	-131.23
829.749	-137.23
829.998	-65.23
830.248	-34.23
830.498	-144.23
830.748	-140.23
830.997	-94.23
831.247	-14.23
831.497	-20.23
831.746	-114.23
831.996	-21.23
832.246	108.77
832.495	96.77
832.745	-164.23
832.994	-148.23
833.244	19.77
833.494	-84.23
833.743	-183.23
833.993	-111.23
834.243	-39.23
834.492	-45.23
834.742	-77.23
834.991	-108.23
835.241	63.77
835.49	-75.23
835.74	-197.23
835.99	-118.23
836.239	-20.23
836.489	-5.23
836.738	-101.23
836.988	-211.23
837.237	-68.23
837.487	43.77
837.736	-85.23
837.986	-121.23
838.235	-48.23
838.485	-100.23
838.734	-137.23
838.984	-32.23
839.233	-50.23
839.483	-156.23
839.732	-187.23
839.982	-84.23
840.231	-18.23
840.481	-24.23
840.73	-142.23
840.979	-78.23
841.229	-69.23
841.478	-82.23
841.728	-209.23
841.977	-226.23
842.227	-147.23
842.476	-182.23
842.725	-214.23
842.975	-138.23
843.224	-37.23
843.474	12.77
843.723	-114.23
843.972	-105.23
844.222	-67.23
844.471	-25.23
844.72	-137.23
844.97	-114.23
845.219	-31.23
845.468	-45.23
845.718	-101.23
845.967	-84.23
846.216	-36.23
846.466	7.77
846.715	-116.23
846.964	-97.23
847.214	-102.23
847.463	-145.23
847.712	-105.23
847.961	-144.23
848.211	-75.23
848.46	-71.23
848.709	-112.23
848.958	-145.23
849.208	-78.23
849.457	-90.23
849.706	-92.23
849.955	-129.23
850.205	-125.23
850.454	17.77
850.703	58.77
850.952	-18.23
851.201	24.77
851.451	-49.23
851.7	-49.23
851.949	-173.23
852.198	-70.23
852.447	-85.23
852.696	-167.23
852.946	-118.23
853.195	-4.23
853.444	-26.23
853.693	-195.23
853.942	-184.23
854.191	-90.23
854.44	-48.23
854.689	-103.23
854.939	-149.23
855.188	-154.23
855.437	-134.23
855.686	-144.23
855.935	-109.23
856.184	-35.23
856.433	10.77
856.682	-57.23
856.931	-72.23
857.18	-33.23
857.429	-118.23
857.678	-158.23
857.927	-106.23
858.176	-63.23
858.425	-134.23
858.674	-206.23
858.924	-109.23
859.173	-82.23
859.422	-51.23
859.671	-189.23
859.92	-125.23
860.169	-76.23
860.417	-36.23
860.666	-105.23
860.915	-145.23
861.164	-84.23
861.413	-129.23
861.662	-198.23
861.911	-154.23
862.16	-22.23
862.409	-49.23
862.658	-209.23
862.907	-152.23
863.156	-47.23
863.405	-68.23
863.654	-168.23
863.903	-197.23
864.151	-92.23
864.4	-59.23
864.649	-126.23
864.898	-69.23
865.147	-41.23
865.396	-21.23
865.645	-164.23
865.894	-109.23
866.142	20.77
866.391	-67.23
866.64	-177.23
866.889	-87.23
867.138	56.77
867.387	-38.23
867.635	-125.23
867.884	-85.23
868.133	23.77
868.382	-55.23
868.631	-190.23
868.879	-182.23
869.128	-65.23
869.377	-69.23
869.626	-137.23
869.874	-124.23
870.123	-10.23
870.372	-51.23
870.621	-186.23
870.869	-159.23
871.118	-39.23
871.367	-49.23
871.616	-185.23
871.864	-71.23
872.113	-23.23
872.362	-62.23
872.61	-120.23
872.859	-64.23
873.108	7.77
873.357	-100.23
873.605	-186.23
873.854	-155.23
874.103	-116.23
874.351	-115.23
874.6	-145.23
874.848	-109.23
875.097	-55.23
875.346	-38.23
875.594	-148.23
875.843	-40.23
876.092	104.77
876.34	-26.23
876.589	-146.23
876.837	-234.23
877.086	-135.23
877.335	-54.23
877.583	-100.23
877.832	-55.23
878.08	57.77
878.329	-56.23
878.578	-134.23
878.826	-100.23
879.075	-15.23
879.323	-12.23
879.572	-89.23
879.82	34.77
880.069	-32.23
880.317	-9.23
880.566	-134.23
880.814	-47.23
881.063	62.77
881.311	-28.23
881.56	3.77
881.808	-92.23
882.057	-19.23
882.305	-60.23
882.554	-48.23
882.802	-129.23
883.051	-93.23
883.299	-77.23
883.548	-125.23
883.796	-14.23
884.045	-21.23
884.293	-110.23
884.541	-194.23
884.79	-218.23
885.038	-105.23
885.287	-88.23
885.535	-74.23
885.783	-52.23
886.032	-106.23
886.28	-145.23
886.529	-185.23
886.777	-108.23
887.025	41.77
887.274	-68.23
887.522	-149.23
887.77	-129.23
888.019	-105.23
888.267	-144.23
888.516	-207.23
888.764	-153.23
889.012	-58.23
889.261	-70.23
889.509	-153.23
889.757	-149.23
890.005	-106.23
890.254	-142.23
890.502	-112.23
890.75	98.77
890.999	86.77
891.247	-5.23
891.495	-61.23
891.743	-75.23
891.992	66.77
892.24	-48.23
892.488	-161.23
892.737	-133.23
892.985	-47.23
893.233	-56.23
893.481	-102.23
893.729	-132.23
893.978	24.77
894.226	39.77
894.474	-116.23
894.722	-129.23
894.97	-75.23
895.219	-80.23
895.467	-66.23
895.715	-36.23
895.963	-60.23
896.211	-119.23
896.46	-196.23
896.708	-88.23
896.956	0.77
897.204	76.77
897.452	-30.23
897.7	-101.23
897.948	-15.23
898.197	-73.23
898.445	-120.23
898.693	-101.23
898.941	-40.23
899.189	-51.23
899.437	-99.23
899.685	-26.23
899.933	-66.23
900.181	-67.23
900.43	-147.23
900.678	-127.23
900.926	-62.23
901.174	-76.23
901.422	-124.23
901.67	-105.23
901.918	-36.23
902.166	-85.23
902.414	-211.23
902.662	-143.23
902.91	-32.23
903.158	-55.23
903.406	-113.23
903.654	-117.23
903.902	-65.23
904.15	-82.23
904.398	-201.23
904.646	-101.23
904.894	-11.23
905.142	-9.23
905.39	-50.23
905.638	-117.23
905.886	-81.23
906.134	-96.23
906.382	-96.23
906.63	-134.23
906.878	-42.23
907.126	-74.23
907.374	-136.23
907.622	-116.23
907.869	6.77
908.117	-26.23
908.365	-103.23
908.613	-111.23
908.861	-96.23
909.109	-135.23
909.357	-163.23
909.605	-105.23
909.853	-16.23
910.1	-77.23
910.348	-241.23
910.596	-194.23
910.844	-17.23
911.092	33.77
911.34	-87.23
911.588	-86.23
911.835	-34.23
912.083	-58.23
912.331	-80.23
912.579	-42.23
912.827	127.77
913.075	-13.23
913.322	-146.23
913.57	-130.23
913.818	-7.23
914.066	-55.23
914.313	-127.23
914.561	-50.23
914.809	-33.23
915.057	-94.23
915.305	-93.23
915.552	-110.23
915.8	-1.23
916.048	-103.23
916.296	-174.23
916.543	-60.23
916.791	16.77
917.039	-31.23
917.286	-158.23
917.534	-131.23
917.782	-0.23
918.03	-89.23
918.277	-216.23
918.525	-195.23
918.773	-63.23
919.02	-76.23
919.268	-148.23
919.516	-113.23
919.763	-119.23
920.011	-110.23
920.259	-190.23
920.506	-101.23
920.754	-9.23
921.002	-16.23
921.249	-65.23
921.497	-103.23
921.745	-50.23
921.992	-36.23
922.24	-184.23
922.487	-45.23
922.735	107.77
922.983	18.77
923.23	-65.23
923.478	-121.23
923.725	-49.23
923.973	-22.23
924.221	-51.23
924.468	-9.23
924.716	-16.23
924.963	-54.23
925.211	-106.23
925.458	-40.23
925.706	53.77
925.953	83.77
926.201	-88.23
926.448	-111.23
926.696	-19.23
926.944	-56.23
927.191	-109.23
927.439	-102.23
927.686	-84.23
927.934	-37.23
928.181	-151.23
928.429	-160.23
928.676	-75.23
928.923	-153.23
929.171	-188.23
929.418	-22.23
929.666	4.77
929.913	-1.23
930.161	-192.23
930.408	-154.23
930.656	-70.23
930.903	-34.23
931.151	-158.23
931.398	-107.23
931.645	22.77
931.893	-70.23
932.14	-115.23
932.388	-100.23
932.635	43.77
932.882	101.77
933.13	-11.23
933.377	-97.23
933.625	-26.23
933.872	-105.23
934.119	-158.23
934.367	-92.23
934.614	-87.23
934.861	-115.23
935.109	-115.23
935.356	-52.23
935.603	1.77
935.851	-75.23
936.098	-131.23
936.345	-28.23
936.593	-12.23
936.84	-58.23
937.087	-189.23
937.335	-120.23
937.582	-38.23
937.829	-26.23
938.077	-71.23
938.324	-78.23
938.571	-19.23
938.818	-88.23
939.066	-145.23
939.313	-153.23
939.56	-26.23
939.807	-27.23
940.055	-168.23
940.302	-126.23
940.549	51.77
940.796	-28.23
941.044	-77.23
941.291	-65.23
941.538	93.77
941.785	-45.23
942.033	-97.23
942.28	-19.23
942.527	-5.23
942.774	-32.23
943.021	-175.23
943.269	-126.23
943.516	-21.23
943.763	-26.23
944.01	-90.23
944.257	-23.23
944.504	51.77
944.752	5.77
944.999	-50.23
945.246	-116.23
945.493	-53.23
945.74	-62.23
945.987	-141.23
946.234	-65.23
946.482	33.77
946.729	-77.23
946.976	-130.23
947.223	-111.23
947.47	38.77
947.717	-4.23
947.964	15.77
948.211	-33.23
948.458	29.77
948.705	-37.23
948.952	-130.23
949.2	-58.23
949.447	65.77
949.694	50.77
949.941	-106.23
950.188	-113.23
950.435	-88.23
950.682	-62.23
950.929	-175.23
951.176	-131.23
951.423	32.77
951.67	-1.23
951.917	-21.23
952.164	-17.23
952.411	25.77
952.658	86.77
952.905	-58.23
953.152	-136.23
953.399	-26.23
953.646	-28.23
953.893	-127.23
954.14	-98.23
954.387	-54.23
954.634	-67.23
954.881	-128.23
955.128	-70.23
955.375	-67.23
955.622	-44.23
955.869	-53.23
956.115	-68.23
956.362	5.77
956.609	-34.23
956.856	-109.23
957.103	-85.23
957.35	12.77
957.597	7.77
957.844	-97.23
958.091	-69.23
958.338	6.77
958.585	-53.23
958.831	-225.23
959.078	-135.23
959.325	18.77
959.572	-68.23
959.819	-144.23
960.066	-186.23
960.313	-57.23
960.559	-89.23
960.806	-207.23
961.053	-157.23
961.3	8.77
961.547	31.77
961.794	-176.23
962.04	-12.23
962.287	10.77
962.534	-122.23
962.781	-143.23
963.028	-60.23
963.274	66.77
963.521	-36.23
963.768	-127.23
964.015	-85.23
964.262	88.77
964.508	-73.23
964.755	-172.23
965.002	-134.23
965.249	-89.23
965.495	-149.23
965.742	-177.23
965.989	-145.23
966.236	-17.23
966.482	-102.23
966.729	-152.23
966.976	-165.23
967.222	-94.23
967.469	-99.23
967.716	-145.23
967.963	-134.23
968.209	-65.23
968.456	-101.23
968.703	-211.23
968.949	-103.23
969.196	57.77
969.443	80.77
969.689	-153.23
969.936	-196.23
970.183	-81.23
970.429	-135.23
970.676	-168.23
970.923	-99.23
971.169	-41.23
971.416	-119.23
971.663	-155.23
971.909	-92.23
972.156	-16.23
972.402	-38.23
972.649	-96.23
972.896	-66.23
973.142	-57.23
973.389	-41.23
973.635	-133.23
973.882	-23.23
974.129	54.77
974.375	-69.23
974.622	-157.23
974.868	-143.23
975.115	-69.23
975.361	-103.23
975.608	-128.23
975.855	-19.23
976.101	11.77
976.348	-72.23
976.594	-150.23
976.841	-73.23
977.087	-64.23
977.334	-30.23
977.58	-159.23
977.827	-170.23
978.073	-21.23
978.32	-45.23
978.566	-184.23
978.813	-99.23
979.059	-61.23
979.306	-89.23
979.552	-182.23
979.799	-88.23
980.045	-76.23
980.292	-88.23
980.538	-144.23
980.785	-157.23
981.031	-122.23
981.278	-142.23
981.524	-210.23
981.771	-41.23
982.017	94.77
982.263	2.77
982.51	-151.23
982.756	-80.23
983.003	-12.23
983.249	-68.23
983.495	-144.23
983.742	-147.23
983.988	-78.23
984.235	-63.23
984.481	-161.23
984.727	-151.23
984.974	-25.23
985.22	-28.23
985.467	-96.23
985.713	-106.23
985.959	12.77
986.206	-18.23
986.452	-95.23
986.698	-66.23
986.945	-61.23
987.191	-17.23
987.437	-2.23
987.684	-50.23
987.93	110.77
988.176	20.77
988.423	-173.23
988.669	-89.23
988.915	89.77
989.162	-67.23
989.408	-181.23
989.654	-94.23
989.901	-66.23
990.147	-71.23
990.393	-58.23
990.639	-4.23
990.886	4.77
991.132	57.77
991.378	5.77
991.625	136.77
991.871	102.77
992.117	3.77
992.363	-72.23
992.61	-38.23
992.856	71.77
993.102	-62.23
993.348	-126.23
993.594	-105.23
993.841	-50.23
994.087	81.77
994.333	-52.23
994.579	-67.23
994.826	-29.23
995.072	-17.23
995.318	-222.23
995.564	-157.23
995.81	-38.23
996.057	-72.23
996.303	-180.23
996.549	-161.23
996.795	-64.23
997.041	-72.23
997.287	-102.23
997.534	-126.23
997.78	-67.23
998.026	-44.23
998.272	-169.23
998.518	-165.23
998.764	-13.23
999.01	1.77
999.256	-113.23
999.503	-130.23
999.749	-121.23
999.995	-154.23
1000.241	-176.23
1000.487	-96.23
1000.733	-56.23
1000.979	-89.23
1001.225	-129.23
1001.471	-61.23
1001.718	-21.23
1001.964	24.77
1002.21	-148.23
1002.456	-119.23
1002.702	34.77
1002.948	-49.23
1003.194	-126.23
1003.44	-150.23
1003.686	-59.23
1003.932	-111.23
1004.178	-158.23
1004.424	-101.23
1004.67	34.77
1004.916	15.77
1005.162	-76.23
1005.408	-117.23
1005.654	16.77
1005.9	-150.23
1006.146	-200.23
1006.392	-128.23
1006.638	-34.23
1006.884	-68.23
1007.13	-159.23
1007.376	-175.23
1007.622	14.77
1007.868	26.77
1008.114	-120.23
1008.36	-54.23
1008.606	-11.23
1008.852	5.77
1009.098	-70.23
1009.344	-33.23
1009.59	-51.23
1009.836	-173.23
1010.082	-226.23
1010.328	-124.23
1010.574	-46.23
1010.82	-129.23
1011.065	-214.23
1011.311	-190.23
1011.557	-80.23
1011.803	-119.23
1012.049	-186.23
1012.295	-133.23
1012.541	-70.23
1012.787	-77.23
1013.033	-206.23
1013.278	-228.23
1013.524	-64.23
1013.77	10.77
1014.016	-111.23
1014.262	-108.23
1014.508	5.77
1014.754	-149.23
1015	-173.23
1015.245	-2.23
1015.491	19.77
1015.737	-20.23
1015.983	-161.23
1016.229	-193.23
1016.475	-71.23
1016.72	68.77
1016.966	58.77
1017.212	-49.23
1017.458	24.77
1017.704	-50.23
1017.949	-183.23
1018.195	-20.23
1018.441	82.77
1018.687	38.77
1018.933	-118.23
1019.178	-120.23
1019.424	42.77
1019.67	40.77
1019.916	-159.23
1020.161	-110.23
1020.407	-44.23
1020.653	-102.23
1020.899	-178.23
1021.144	-90.23
1021.39	8.77
1021.636	-110.23
1021.882	-216.23
1022.127	-96.23
1022.373	64.77
1022.619	8.77
1022.865	-98.23
1023.11	-107.23
1023.356	14.77
1023.602	-59.23
1023.847	-116.23
1024.093	-67.23
1024.339	-79.23
1024.584	-112.23
1024.83	-120.23
1025.076	-118.23
1025.321	2.77
1025.567	-27.23
1025.813	-152.23
1026.058	-55.23
1026.304	6.77
1026.55	-67.23
1026.795	-94.23
1027.041	-97.23
1027.287	-40.23
1027.532	-17.23
1027.778	-39.23
1028.024	-64.23
1028.269	-29.23
1028.515	-113.23
1028.76	-173.23
1029.006	-86.23
1029.252	25.77
1029.497	-37.23
1029.743	-76.23
1029.989	-134.23
1030.234	7.77
1030.48	85.77
1030.725	-118.23
1030.971	-85.23
1031.216	52.77
1031.462	-41.23
1031.708	-186.23
1031.953	-134.23
1032.199	-58.23
1032.444	-17.23
1032.69	-58.23
1032.935	-85.23
1033.181	29.77
1033.426	-88.23
1033.672	-234.23
1033.918	-161.23
1034.163	-55.23
1034.409	-73.23
1034.654	-128.23
1034.9	-48.23
1035.145	26.77
1035.391	-42.23
1035.636	-162.23
1035.882	-65.23
1036.127	-82.23
1036.373	-128.23
1036.618	-224.23
1036.864	-108.23
1037.109	35.77
1037.355	-70.23
1037.6	-145.23
1037.845	-104.23
1038.091	90.77
1038.336	47.77
1038.582	56.77
1038.827	128.77
1039.073	-35.23
1039.318	-97.23
1039.564	-190.23
1039.809	-132.23
1040.055	46.77
1040.3	37.77
1040.545	-126.23
1040.791	-119.23
1041.036	-55.23
1041.282	-23.23
1041.527	22.77
1041.772	-150.23
1042.018	-76.23
1042.263	-37.23
1042.509	-194.23
1042.754	-160.23
1042.999	-33.23
1043.245	-43.23
1043.49	-225.23
1043.736	-143.23
1043.981	-47.23
1044.226	-29.23
1044.472	-47.23
1044.717	-52.23
1044.962	59.77
1045.208	-29.23
1045.453	-255.23
1045.698	-173.23
1045.944	26.77
1046.189	-25.23
1046.434	-135.23
1046.68	-101.23
1046.925	77.77
1047.17	-73.23
1047.416	-237.23
1047.661	-144.23
1047.906	8.77
1048.152	-2.23
1048.397	-93.23
1048.642	-106.23
1048.887	60.77
1049.133	63.77
1049.378	-90.23
1049.623	-119.23
1049.869	-2.23
1050.114	-80.23
1050.359	-150.23
1050.604	-80.23
1050.85	84.77
1051.095	-44.23
1051.34	-156.23
1051.585	-82.23
1051.831	101.77
1052.076	-40.23
1052.321	-241.23
1052.566	-127.23
1052.812	69.77
1053.057	-23.23
1053.302	-106.23
1053.547	-24.23
1053.792	24.77
1054.038	30.77
1054.283	-172.23
1054.528	-105.23
1054.773	-31.23
1055.018	-36.23
1055.264	-144.23
1055.509	-177.23
1055.754	-47.23
1055.999	-109.23
1056.244	-185.23
1056.49	-112.23
1056.735	-21.23
1056.98	-81.23
1057.225	-174.23
1057.47	21.77
1057.715	-47.23
1057.96	-114.23
1058.206	-170.23
1058.451	-57.23
1058.696	67.77
1058.941	3.77
1059.186	-173.23
1059.431	-150.23
1059.676	33.77
1059.922	-22.23
1060.167	58.77
1060.412	240.77
1060.657	43.77
1060.902	-14.23
1061.147	-200.23
1061.392	-117.23
1061.637	28.77
1061.882	-69.23
1062.127	-203.23
1062.373	-190.23
1062.618	66.77
1062.863	87.77
1063.108	-106.23
1063.353	-158.23
1063.598	-45.23
1063.843	-69.23
1064.088	-151.23
1064.333	-150.23
1064.578	-13.23
1064.823	12.77
1065.068	-225.23
1065.313	-154.23
1065.558	2.77
1065.803	5.77
1066.048	-189.23
1066.293	-177.23
1066.538	45.77
1066.783	-20.23
1067.028	-196.23
1067.273	-186.23
1067.518	-0.23
1067.763	-60.23
1068.008	-216.23
1068.253	-157.23
1068.498	25.77
1068.743	-24.23
1068.988	-176.23
1069.233	-167.23
1069.478	42.77
1069.723	98.77
1069.968	-96.23
1070.213	-61.23
1070.458	29.77
1070.703	-52.23
1070.948	-220.23
1071.193	-109.23
1071.438	31.77
1071.683	51.77
1071.928	-71.23
1072.173	-87.23
1072.418	-24.23
1072.663	-65.23
1072.908	-191.23
1073.152	-126.23
1073.397	54.77
1073.642	-65.23
1073.887	-104.23
1074.132	3.77
1074.377	-17.23
1074.622	-42.23
1074.867	-153.23
1075.112	-85.23
1075.357	103.77
1075.601	-65.23
1075.846	-117.23
1076.091	-5.23
1076.336	34.77
1076.581	-97.23
1076.826	-209.23
1077.071	-114.23
1077.315	139.77
1077.56	88.77
1077.805	-155.23
1078.05	-112.23
1078.295	-41.23
1078.54	-76.23
1078.785	-204.23
1079.029	-136.23
1079.274	30.77
1079.519	-95.23
1079.764	-188.23
1080.009	-66.23
1080.253	4.77
1080.498	-90.23
1080.743	-227.23
1080.988	-88.23
1081.233	126.77
1081.478	57.77
1081.722	-137.23
1081.967	-26.23
1082.212	123.77
1082.457	14.77
1082.701	-134.23
1082.946	-86.23
1083.191	35.77
1083.436	-78.23
1083.681	-229.23
1083.925	-116.23
1084.17	-21.23
1084.415	7.77
1084.66	-198.23
1084.904	-112.23
1085.149	-19.23
1085.394	-64.23
1085.639	-218.23
1085.883	-114.23
1086.128	135.77
1086.373	135.77
1086.617	-96.23
1086.862	-159.23
1087.107	-32.23
1087.352	-82.23
1087.596	-163.23
1087.841	-27.23
1088.086	10.77
1088.33	-14.23
1088.575	-254.23
1088.82	-119.23
1089.064	53.77
1089.309	-95.23
1089.554	-202.23
1089.798	-174.23
1090.043	12.77
1090.288	-20.23
1090.533	-202.23
1090.777	-126.23
1091.022	11.77
1091.266	27.77
1091.511	-125.23
1091.756	-57.23
1092	102.77
1092.245	74.77
1092.49	-154.23
1092.734	-101.23
1092.979	74.77
1093.224	-53.23
1093.468	-207.23
1093.713	-135.23
1093.957	12.77
1094.202	-59.23
1094.447	-229.23
1094.691	-108.23
1094.936	49.77
1095.181	-8.23
1095.425	-184.23
1095.67	-161.23
1095.914	6.77
1096.159	11.77
1096.403	-142.23
1096.648	-61.23
1096.893	46.77
1097.137	-88.23
1097.382	-234.23
1097.626	-157.23
1097.871	17.77
1098.115	-41.23
1098.36	-204.23
1098.605	-102.23
1098.849	-21.23
1099.094	-112.23
1099.338	-204.23
1099.583	-110.23
1099.827	131.77
1100.072	37.77
1100.316	-180.23
1100.561	-110.23
1100.805	58.77
1101.05	8.77
1101.294	-176.23
1101.539	-168.23
1101.783	-5.23
1102.028	-5.23
1102.273	-155.23
1102.517	-88.23
1102.761	40.77
1103.006	-73.23
1103.25	-280.23
1103.495	-178.23
1103.739	33.77
1103.984	69.77
1104.228	-110.23
1104.473	-27.23
1104.717	35.77
1104.962	-8.23
1105.206	-127.23
1105.451	-143.23
1105.695	26.77
1105.94	-7.23
1106.184	-150.23
1106.429	-106.23
1106.673	-2.23
1106.917	64.77
1107.162	-170.23
1107.406	-26.23
1107.651	118.77
1107.895	-104.23
1108.14	-194.23
1108.384	-95.23
1108.628	112.77
1108.873	108.77
1109.117	-135.23
1109.362	-127.23
1109.606	-27.23
1109.85	-28.23
1110.095	-162.23
1110.339	-96.23
1110.584	99.77
1110.828	29.77
1111.072	-83.23
1111.317	-126.23
1111.561	-29.23
1111.806	-32.23
1112.05	-174.23
1112.294	-88.23
1112.539	17.77
1112.783	-16.23
1113.027	-130.23
1113.272	-113.23
1113.516	-33.23
1113.76	-53.23
1114.005	-131.23
1114.249	-79.23
1114.493	66.77
1114.738	95.77
1114.982	-46.23
1115.226	-87.23
1115.471	-6.23
1115.715	-36.23
1115.959	-194.23
1116.204	-172.23
1116.448	-7.23
1116.692	-95.23
1116.937	-172.23
1117.181	-23.23
1117.425	-12.23
1117.67	-76.23
1117.914	-150.23
1118.158	-105.23
1118.402	126.77
1118.647	53.77
1118.891	-86.23
1119.135	-29.23
1119.38	114.77
1119.624	4.77
1119.868	-158.23
1120.112	-144.23
1120.357	-66.23
1120.601	-125.23
1120.845	-220.23
1121.089	-147.23
1121.334	36.77
