Data from HR4C21111__52__10-17-53-333.txt Node

Date: Mon Feb 22 10:17:53 IST 2021
User: Kapil
Spectrometer: HR4C2111
Trigger mode: 4
Integration Time (sec): 2.300000E0
Scans to average: 1
Electric dark correction enabled: true
Nonlinearity correction enabled: false
Boxcar width: 0
XAxis mode: Wavelengths
Number of Pixels in Spectrum: 3648
>>>>>Begin Spectral Data<<<<<
189.472	-455.15
189.745	-455.15
190.017	-455.15
190.289	-469.15
190.561	-296.15
190.834	-14.15
191.106	-103.15
191.378	12.85
191.65	-2.15
191.923	-144.15
192.195	-101.15
192.467	134.85
192.739	115.85
193.011	-23.15
193.284	72.85
193.556	165.85
193.828	-11.15
194.1	-103.15
194.372	-128.15
194.644	47.85
194.916	61.85
195.188	-149.15
195.46	-71.15
195.732	40.85
196.004	-15.15
196.276	-107.15
196.548	-67.15
196.82	68.85
197.092	57.85
197.364	-133.15
197.636	-90.15
197.908	20.85
198.18	-53.15
198.452	-109.15
198.724	-46.15
198.996	42.85
199.268	66.85
199.54	-35.15
199.811	-119.15
200.083	93.85
200.355	2.85
200.627	-205.15
200.899	-71.15
201.171	54.85
201.442	-47.15
201.714	-186.15
201.986	-103.15
202.258	57.85
202.529	112.85
202.801	-8.15
203.073	66.85
203.345	182.85
203.616	5.85
203.888	-141.15
204.16	-152.15
204.431	75.85
204.703	-9.15
204.974	-149.15
205.246	-3.15
205.518	180.85
205.789	-10.15
206.061	-139.15
206.332	-109.15
206.604	11.85
206.876	96.85
207.147	123.85
207.419	34.85
207.69	142.85
207.962	-48.15
208.233	-192.15
208.505	18.85
208.776	180.85
209.047	80.85
209.319	-133.15
209.59	-82.15
209.862	103.85
210.133	-43.15
210.404	-160.15
210.676	-99.15
210.947	72.85
211.219	49.85
211.49	-125.15
211.761	-51.15
212.033	27.85
212.304	-29.15
212.575	-178.15
212.846	-82.15
213.118	38.85
213.389	-48.15
213.66	-97.15
213.931	-40.15
214.203	23.85
214.474	-45.15
214.745	-135.15
215.016	127.85
215.287	432.85
215.559	59.85
215.83	-120.15
216.101	-67.15
216.372	0.85
216.643	61.85
216.914	1.85
217.185	-81.15
217.456	142.85
217.727	9.85
217.998	-166.15
218.269	-66.15
218.54	17.85
218.811	-17.15
219.082	-110.15
219.353	-84.15
219.624	-13.15
219.895	-37.15
220.166	-145.15
220.437	-116.15
220.708	89.85
220.979	-11.15
221.25	-147.15
221.521	-97.15
221.792	30.85
222.063	79.85
222.334	22.85
222.604	160.85
222.875	158.85
223.146	80.85
223.417	-163.15
223.688	-37.15
223.958	116.85
224.229	-57.15
224.5	-194.15
224.771	-79.15
225.041	90.85
225.312	57.85
225.583	-103.15
225.854	-64.15
226.124	89.85
226.395	-23.15
226.666	-138.15
226.936	-107.15
227.207	74.85
227.478	-46.15
227.748	-97.15
228.019	55.85
228.289	248.85
228.56	-35.15
228.831	-42.15
229.101	51.85
229.372	50.85
229.642	-28.15
229.913	-174.15
230.183	-136.15
230.454	-0.15
230.724	-2.15
230.995	-110.15
231.265	-72.15
231.536	59.85
231.806	43.85
232.076	-104.15
232.347	-116.15
232.617	30.85
232.888	29.85
233.158	-62.15
233.428	-130.15
233.699	-14.15
233.969	-52.15
234.239	-150.15
234.51	-75.15
234.78	57.85
235.05	-18.15
235.321	-131.15
235.591	-82.15
235.861	55.85
236.131	-62.15
236.402	-204.15
236.672	-107.15
236.942	40.85
237.212	33.85
237.483	-81.15
237.753	-13.15
238.023	156.85
238.293	14.85
238.563	-94.15
238.833	-115.15
239.103	59.85
239.374	-23.15
239.644	-144.15
239.914	-39.15
240.184	125.85
240.454	-0.15
240.724	-165.15
240.994	-85.15
241.264	9.85
241.534	57.85
241.804	-6.15
242.074	-92.15
242.344	-35.15
242.614	-56.15
242.884	-181.15
243.154	-128.15
243.424	27.85
243.694	64.85
243.964	-91.15
244.234	-82.15
244.503	114.85
244.773	6.85
245.043	-238.15
245.313	-145.15
245.583	133.85
245.853	88.85
246.123	-188.15
246.392	-122.15
246.662	-1.15
246.932	-39.15
247.202	-189.15
247.471	-59.15
247.741	254.85
248.011	95.85
248.281	-150.15
248.55	-93.15
248.82	50.85
249.09	-8.15
249.359	-93.15
249.629	-78.15
249.899	46.85
250.168	55.85
250.438	-19.15
250.708	-91.15
250.977	81.85
251.247	55.85
251.516	-109.15
251.786	-37.15
252.055	132.85
252.325	8.85
252.595	-100.15
252.864	-62.15
253.134	42.85
253.403	-40.15
253.673	-177.15
253.942	-112.15
254.212	28.85
254.481	1.85
254.75	-134.15
255.02	-93.15
255.289	68.85
255.559	-23.15
255.828	-139.15
256.097	-33.15
256.367	29.85
256.636	-79.15
256.906	-153.15
257.175	-21.15
257.444	251.85
257.714	52.85
257.983	-82.15
258.252	-49.15
258.521	8.85
258.791	23.85
259.06	-126.15
259.329	-63.15
259.598	55.85
259.868	-21.15
260.137	-125.15
260.406	-23.15
260.675	75.85
260.944	7.85
261.214	-145.15
261.483	-47.15
261.752	183.85
262.021	-2.15
262.29	-173.15
262.559	-121.15
262.828	17.85
263.097	-51.15
263.366	-207.15
263.635	-91.15
263.905	120.85
264.174	20.85
264.443	-197.15
264.712	-107.15
264.981	36.85
265.25	-46.15
265.519	-148.15
265.788	-155.15
266.057	25.85
266.325	45.85
266.594	-48.15
266.863	-117.15
267.132	16.85
267.401	-2.15
267.67	-214.15
267.939	-161.15
268.208	24.85
268.477	68.85
268.745	-136.15
269.014	-118.15
269.283	123.85
269.552	33.85
269.821	-134.15
270.089	-36.15
270.358	-8.15
270.627	-28.15
270.896	-146.15
271.164	-166.15
271.433	11.85
271.702	82.85
271.971	-144.15
272.239	-146.15
272.508	7.85
272.777	-41.15
273.045	-16.15
273.314	-24.15
273.583	93.85
273.851	-14.15
274.12	-152.15
274.388	-128.15
274.657	0.85
274.926	-6.15
275.194	-158.15
275.463	-76.15
275.731	7.85
276	150.85
276.268	349.85
276.537	-85.15
276.805	23.85
277.074	24.85
277.342	-183.15
277.611	-109.15
277.879	102.85
278.148	22.85
278.416	-145.15
278.684	-124.15
278.953	-18.15
279.221	-45.15
279.49	-202.15
279.758	-119.15
280.026	-25.15
280.295	-7.15
280.563	-129.15
280.831	715.85
281.1	1823.85
281.368	157.85
281.636	-113.15
281.904	-131.15
282.173	-18.15
282.441	-64.15
282.709	-94.15
282.977	22.85
283.246	32.85
283.514	-37.15
283.782	-68.15
284.05	10.85
284.318	69.85
284.587	-21.15
284.855	-125.15
285.123	-56.15
285.391	70.85
285.659	45.85
285.927	-146.15
286.195	-77.15
286.463	53.85
286.732	-3.15
287	-130.15
287.268	-78.15
287.536	10.85
287.804	-45.15
288.072	-134.15
288.34	-84.15
288.608	65.85
288.876	-38.15
289.144	-120.15
289.412	-21.15
289.68	40.85
289.948	-30.15
290.215	-114.15
290.483	-108.15
290.751	92.85
291.019	93.85
291.287	-188.15
291.555	-132.15
291.823	19.85
292.091	-34.15
292.358	-84.15
292.626	-24.15
292.894	65.85
293.162	42.85
293.43	-113.15
293.697	-96.15
293.965	37.85
294.233	-40.15
294.501	-174.15
294.768	-75.15
295.036	59.85
295.304	14.85
295.572	-143.15
295.839	-106.15
296.107	114.85
296.375	1.85
296.642	-151.15
296.91	-133.15
297.178	37.85
297.445	171.85
297.713	104.85
297.98	-99.15
298.248	-39.15
298.516	-42.15
298.783	-139.15
299.051	-119.15
299.318	10.85
299.586	-46.15
299.853	-103.15
300.121	-100.15
300.388	30.85
300.656	-15.15
300.923	-162.15
301.191	-67.15
301.458	45.85
301.726	-23.15
301.993	-151.15
302.26	-91.15
302.528	39.85
302.795	-11.15
303.063	-88.15
303.33	-59.15
303.597	25.85
303.865	2.85
304.132	-147.15
304.399	-129.15
304.667	-29.15
304.934	18.85
305.201	-117.15
305.469	-29.15
305.736	35.85
306.003	33.85
306.27	-72.15
306.538	-111.15
306.805	-22.15
307.072	-40.15
307.339	-102.15
307.606	-48.15
307.874	164.85
308.141	66.85
308.408	-153.15
308.675	-130.15
308.942	-76.15
309.209	-94.15
309.477	-149.15
309.744	-103.15
310.011	22.85
310.278	24.85
310.545	-45.15
310.812	-68.15
311.079	127.85
311.346	192.85
311.613	54.85
311.88	-46.15
312.147	-77.15
312.414	-42.15
312.681	-121.15
312.948	-47.15
313.215	106.85
313.482	82.85
313.749	-110.15
314.016	-211.15
314.283	-71.15
314.55	50.85
314.817	-101.15
315.083	-137.15
315.35	-97.15
315.617	-151.15
315.884	-159.15
316.151	46.85
316.418	157.85
316.684	-33.15
316.951	-192.15
317.218	-123.15
317.485	-19.15
317.752	-58.15
318.018	-113.15
318.285	-18.15
318.552	24.85
318.819	-65.15
319.085	-146.15
319.352	-46.15
319.619	34.85
319.885	-40.15
320.152	-197.15
320.419	-117.15
320.685	19.85
320.952	-32.15
321.219	-76.15
321.485	52.85
321.752	9.85
322.019	-43.15
322.285	24.85
322.552	-34.15
322.818	111.85
323.085	-21.15
323.351	-147.15
323.618	-34.15
323.884	38.85
324.151	-62.15
324.417	-41.15
324.684	-89.15
324.95	-66.15
325.217	-148.15
325.483	-184.15
325.75	-40.15
326.016	1.85
326.283	-43.15
326.549	-200.15
326.815	-79.15
327.082	92.85
327.348	8.85
327.615	-114.15
327.881	-17.15
328.147	110.85
328.414	117.85
328.68	16.85
328.946	-46.15
329.212	21.85
329.479	-2.15
329.745	-126.15
330.011	-116.15
330.278	9.85
330.544	-59.15
330.81	-54.15
331.076	-46.15
331.342	-47.15
331.609	-44.15
331.875	-113.15
332.141	-107.15
332.407	20.85
332.673	-18.15
332.94	-34.15
333.206	-59.15
333.472	39.85
333.738	54.85
334.004	-130.15
334.27	-30.15
334.536	-7.15
334.802	-58.15
335.068	-101.15
335.334	3.85
335.6	18.85
335.866	-40.15
336.132	-169.15
336.398	-92.15
336.664	-46.15
336.93	-66.15
337.196	-108.15
337.462	-34.15
337.728	22.85
337.994	-52.15
338.26	-103.15
338.526	-43.15
338.792	-67.15
339.058	-66.15
339.324	-166.15
339.59	-23.15
339.856	40.85
340.121	-68.15
340.387	-136.15
340.653	57.85
340.919	138.85
341.185	46.85
341.45	-89.15
341.716	14.85
341.982	93.85
342.248	-82.15
342.514	-89.15
342.779	-16.15
343.045	12.85
343.311	-25.15
343.576	-97.15
343.842	-55.15
344.108	127.85
344.374	-0.15
344.639	-128.15
344.905	-110.15
345.171	42.85
345.436	-71.15
345.702	-116.15
345.967	35.85
346.233	66.85
346.499	-2.15
346.764	-187.15
347.03	-86.15
347.295	-64.15
347.561	-31.15
347.826	-67.15
348.092	-136.15
348.357	-50.15
348.623	-47.15
348.888	-140.15
349.154	-119.15
349.419	24.85
349.685	-14.15
349.95	-109.15
350.216	-77.15
350.481	24.85
350.747	-71.15
351.012	-197.15
351.277	-122.15
351.543	1.85
351.808	-55.15
352.074	-205.15
352.339	-157.15
352.604	19.85
352.87	-15.15
353.135	-157.15
353.4	-101.15
353.666	-35.15
353.931	-55.15
354.196	-192.15
354.461	-164.15
354.727	-5.15
354.992	-28.15
355.257	-163.15
355.522	-57.15
355.788	-28.15
356.053	27.85
356.318	-119.15
356.583	-140.15
356.848	38.85
357.113	128.85
357.379	-108.15
357.644	-127.15
357.909	56.85
358.174	77.85
358.439	-188.15
358.704	-129.15
358.969	6.85
359.234	22.85
359.499	-156.15
359.765	-87.15
360.03	31.85
360.295	24.85
360.56	-142.15
360.825	-91.15
361.09	103.85
361.355	-73.15
361.62	-113.15
361.885	-72.15
362.15	-91.15
362.415	-91.15
362.679	-148.15
362.944	4.85
363.209	29.85
363.474	24.85
363.739	-47.15
364.004	-132.15
364.269	-67.15
364.534	-19.15
364.799	-69.15
365.063	-57.15
365.328	23.85
365.593	16.85
365.858	-121.15
366.123	-119.15
366.387	23.85
366.652	-47.15
366.917	-166.15
367.182	-115.15
367.447	52.85
367.711	-26.15
367.976	-99.15
368.241	-41.15
368.505	30.85
368.77	-64.15
369.035	-82.15
369.299	-22.15
369.564	4.85
369.829	-83.15
370.093	-128.15
370.358	-140.15
370.623	-24.15
370.887	-13.15
371.152	-159.15
371.416	-86.15
371.681	-40.15
371.946	-133.15
372.21	-170.15
372.475	-52.15
372.739	-13.15
373.004	-69.15
373.268	-114.15
373.533	-44.15
373.797	-5.15
374.062	-15.15
374.326	-183.15
374.591	-95.15
374.855	0.85
375.12	-83.15
375.384	-260.15
375.648	-170.15
375.913	-10.15
376.177	-1.15
376.442	-132.15
376.706	-127.15
376.97	19.85
377.235	-30.15
377.499	-81.15
377.763	-85.15
378.028	-104.15
378.292	-68.15
378.556	-133.15
378.821	-200.15
379.085	-112.15
379.349	-177.15
379.614	-249.15
379.878	-135.15
380.142	62.85
380.406	-36.15
380.671	-66.15
380.935	72.85
381.199	178.85
381.463	35.85
381.727	-17.15
381.991	-67.15
382.256	-5.15
382.52	-60.15
382.784	-50.15
383.048	49.85
383.312	0.85
383.576	-46.15
383.84	-152.15
384.104	-96.15
384.369	-21.15
384.633	-130.15
384.897	-220.15
385.161	-107.15
385.425	-14.15
385.689	-81.15
385.953	-134.15
386.217	-161.15
386.481	-57.15
386.745	-37.15
387.009	-67.15
387.273	-122.15
387.537	-92.15
387.801	-64.15
388.064	-127.15
388.328	-64.15
388.592	4.85
388.856	-63.15
389.12	-144.15
389.384	-87.15
389.648	-41.15
389.912	42.85
390.176	28.85
390.439	106.85
390.703	-68.15
390.967	-92.15
391.231	-167.15
391.495	-111.15
391.758	-56.15
392.022	-44.15
392.286	-173.15
392.55	-143.15
392.813	-36.15
393.077	11.85
393.341	-67.15
393.605	-10.15
393.868	-45.15
394.132	-63.15
394.396	-88.15
394.659	36.85
394.923	-27.15
395.187	-65.15
395.45	-103.15
395.714	-57.15
395.978	-36.15
396.241	-21.15
396.505	-116.15
396.768	-78.15
397.032	-10.15
397.295	-3.15
397.559	-102.15
397.823	-124.15
398.086	9.85
398.35	-54.15
398.613	-165.15
398.877	-40.15
399.14	83.85
399.404	83.85
399.667	-24.15
399.931	-96.15
400.194	-13.15
400.457	-47.15
400.721	-72.15
400.984	18.85
401.248	-41.15
401.511	-76.15
401.775	-178.15
402.038	-125.15
402.301	71.85
402.565	6.85
402.828	-204.15
403.091	-125.15
403.355	-17.15
403.618	-11.15
403.881	-21.15
404.145	-61.15
404.408	10.85
404.671	-37.15
404.934	-25.15
405.198	4.85
405.461	0.85
405.724	9.85
405.987	-35.15
406.251	-0.15
406.514	89.85
406.777	-36.15
407.04	-123.15
407.303	-127.15
407.567	11.85
407.83	63.85
408.093	-139.15
408.356	-30.15
408.619	45.85
408.882	85.85
409.145	-35.15
409.408	-50.15
409.672	23.85
409.935	-37.15
410.198	-158.15
410.461	-78.15
410.724	82.85
410.987	-12.15
411.25	-150.15
411.513	-36.15
411.776	19.85
412.039	-96.15
412.302	-141.15
412.565	-110.15
412.828	-56.15
413.091	-75.15
413.354	-142.15
413.617	-109.15
413.879	-53.15
414.142	-33.15
414.405	-151.15
414.668	-87.15
414.931	47.85
415.194	10.85
415.457	-141.15
415.72	-63.15
415.983	-14.15
416.245	-34.15
416.508	-139.15
416.771	-144.15
417.034	6.85
417.297	11.85
417.559	-38.15
417.822	-73.15
418.085	6.85
418.348	-1.15
418.61	-158.15
418.873	-135.15
419.136	-97.15
419.399	-117.15
419.661	-91.15
419.924	-108.15
420.187	-22.15
420.449	-40.15
420.712	-117.15
420.975	-154.15
421.237	-45.15
421.5	-49.15
421.762	-23.15
422.025	4.85
422.288	47.85
422.55	-118.15
422.813	-202.15
423.075	-119.15
423.338	-24.15
423.601	-7.15
423.863	-76.15
424.126	-57.15
424.388	45.85
424.651	-14.15
424.913	-72.15
425.176	-81.15
425.438	-52.15
425.701	10.85
425.963	-125.15
426.225	-178.15
426.488	-71.15
426.75	-76.15
427.013	-151.15
427.275	-102.15
427.538	-80.15
427.8	-96.15
428.062	-141.15
428.325	-71.15
428.587	30.85
428.849	-32.15
429.112	-106.15
429.374	-133.15
429.636	-75.15
429.899	13.85
430.161	-100.15
430.423	-73.15
430.686	2.85
430.948	-10.15
431.21	-136.15
431.472	-148.15
431.735	-71.15
431.997	-103.15
432.259	-72.15
432.521	-119.15
432.783	-24.15
433.046	-47.15
433.308	-146.15
433.57	-80.15
433.832	132.85
434.094	-74.15
434.356	-204.15
434.618	-104.15
434.881	-29.15
435.143	-83.15
435.405	-67.15
435.667	-34.15
435.929	-28.15
436.191	-69.15
436.453	-156.15
436.715	-68.15
436.977	-21.15
437.239	-65.15
437.501	-183.15
437.763	-137.15
438.025	-2.15
438.287	-47.15
438.549	-144.15
438.811	-106.15
439.073	-55.15
439.335	-110.15
439.597	-134.15
439.859	-40.15
440.121	65.85
440.383	-127.15
440.645	-141.15
440.907	-66.15
441.168	-19.15
441.43	-81.15
441.692	-169.15
441.954	-147.15
442.216	-65.15
442.478	-79.15
442.74	-204.15
443.001	-92.15
443.263	68.85
443.525	5.85
443.787	-130.15
444.048	-102.15
444.31	-72.15
444.572	-81.15
444.834	-117.15
445.095	-107.15
445.357	19.85
445.619	-43.15
445.881	-229.15
446.142	-137.15
446.404	-77.15
446.666	-62.15
446.927	-95.15
447.189	49.85
447.451	42.85
447.712	-40.15
447.974	-236.15
448.235	-181.15
448.497	-35.15
448.759	-110.15
449.02	-172.15
449.282	-195.15
449.543	-25.15
449.805	44.85
450.066	-208.15
450.328	-88.15
450.59	100.85
450.851	-29.15
451.113	-69.15
451.374	-146.15
451.636	-11.15
451.897	11.85
452.158	-60.15
452.42	47.85
452.681	71.85
452.943	-108.15
453.204	-197.15
453.466	-193.15
453.727	-113.15
453.988	-66.15
454.25	-182.15
454.511	-198.15
454.773	-78.15
455.034	65.85
455.295	-140.15
455.557	-154.15
455.818	-63.15
456.079	-45.15
456.341	47.85
456.602	23.85
456.863	19.85
457.124	-60.15
457.386	-169.15
457.647	-185.15
457.908	-93.15
458.169	17.85
458.431	-172.15
458.692	-183.15
458.953	-69.15
459.214	-99.15
459.476	-100.15
459.737	-26.15
459.998	14.85
460.259	-74.15
460.52	-182.15
460.781	-121.15
461.043	34.85
461.304	-91.15
461.565	-202.15
461.826	-174.15
462.087	-53.15
462.348	-13.15
462.609	-142.15
462.87	-83.15
463.131	-95.15
463.392	-14.15
463.653	-96.15
463.914	-73.15
464.175	-33.15
464.436	-102.15
464.697	-168.15
464.958	-156.15
465.219	-51.15
465.48	-56.15
465.741	-79.15
466.002	-133.15
466.263	-75.15
466.524	-67.15
466.785	-160.15
467.046	-130.15
467.307	-45.15
467.568	-114.15
467.829	-121.15
468.089	-82.15
468.35	-29.15
468.611	-88.15
468.872	-163.15
469.133	-43.15
469.394	16.85
469.655	55.85
469.915	-122.15
470.176	-182.15
470.437	-143.15
470.698	-68.15
470.958	-134.15
471.219	-189.15
471.48	-114.15
471.741	-120.15
472.001	-190.15
472.262	-127.15
472.523	13.85
472.784	20.85
473.044	-123.15
473.305	-83.15
473.566	35.85
473.826	18.85
474.087	-123.15
474.348	-100.15
474.608	-36.15
474.869	12.85
475.129	-132.15
475.39	-157.15
475.651	-57.15
475.911	-37.15
476.172	-177.15
476.432	-78.15
476.693	71.85
476.953	-20.15
477.214	-20.15
477.475	-7.15
477.735	-17.15
477.996	-11.15
478.256	-208.15
478.517	-154.15
478.777	-54.15
479.038	9.85
479.298	-5.15
479.558	-104.15
479.819	48.85
480.079	62.85
480.34	-30.15
480.6	-121.15
480.861	-10.15
481.121	-50.15
481.381	-156.15
481.642	-87.15
481.902	-65.15
482.162	-114.15
482.423	-86.15
482.683	-7.15
482.943	6.85
483.204	-91.15
483.464	-117.15
483.724	-94.15
483.985	-60.15
484.245	-18.15
484.505	-94.15
484.765	-14.15
485.026	55.85
485.286	10.85
485.546	-78.15
485.806	-4.15
486.067	14.85
486.327	-99.15
486.587	-166.15
486.847	-153.15
487.107	-44.15
487.368	-37.15
487.628	-88.15
487.888	-102.15
488.148	-13.15
488.408	-87.15
488.668	-73.15
488.928	-31.15
489.188	-25.15
489.449	66.85
489.709	-94.15
489.969	-105.15
490.229	-4.15
490.489	-17.15
490.749	-111.15
491.009	-198.15
491.269	-92.15
491.529	-91.15
491.789	-163.15
492.049	-63.15
492.309	41.85
492.569	-78.15
492.829	-107.15
493.089	-116.15
493.349	34.85
493.609	-48.15
493.869	-146.15
494.129	-57.15
494.389	52.85
494.648	-92.15
494.908	-184.15
495.168	-87.15
495.428	39.85
495.688	-59.15
495.948	-212.15
496.208	-180.15
496.467	-108.15
496.727	-63.15
496.987	-94.15
497.247	-99.15
497.507	-2.15
497.767	35.85
498.026	-171.15
498.286	-73.15
498.546	137.85
498.806	0.85
499.065	39.85
499.325	-32.15
499.585	-46.15
499.845	-44.15
500.104	-50.15
500.364	56.85
500.624	-2.15
500.883	-87.15
501.143	-59.15
501.403	0.85
501.662	84.85
501.922	-13.15
502.182	-143.15
502.441	-151.15
502.701	-69.15
502.96	34.85
503.22	-49.15
503.48	-92.15
503.739	-17.15
503.999	-71.15
504.258	-156.15
504.518	-66.15
504.777	25.85
505.037	-33.15
505.296	-91.15
505.556	-103.15
505.815	27.85
506.075	108.85
506.334	-4.15
506.594	-159.15
506.853	-99.15
507.113	-89.15
507.372	-225.15
507.632	-163.15
507.891	-60.15
508.151	-27.15
508.41	-169.15
508.669	-117.15
508.929	17.85
509.188	-52.15
509.447	-102.15
509.707	-125.15
509.966	-51.15
510.226	-51.15
510.485	-95.15
510.744	-61.15
511.004	7.85
511.263	-84.15
511.522	-173.15
511.781	-108.15
512.041	16.85
512.3	-56.15
512.559	-32.15
512.818	-4.15
513.078	-8.15
513.337	-17.15
513.596	-90.15
513.855	-104.15
514.115	20.85
514.374	-30.15
514.633	-162.15
514.892	-174.15
515.151	-21.15
515.41	13.85
515.67	-89.15
515.929	-125.15
516.188	-33.15
516.447	-50.15
516.706	-121.15
516.965	-108.15
517.224	-69.15
517.483	-80.15
517.743	-113.15
518.002	-66.15
518.261	6.85
518.52	-51.15
518.779	-136.15
519.038	-121.15
519.297	-70.15
519.556	-84.15
519.815	-173.15
520.074	-171.15
520.333	-55.15
520.592	-72.15
520.851	-156.15
521.11	-56.15
521.369	98.85
521.628	-77.15
521.887	-159.15
522.145	-88.15
522.404	-41.15
522.663	-54.15
522.922	-200.15
523.181	-181.15
523.44	-38.15
523.699	-15.15
523.958	-179.15
524.217	-144.15
524.475	-121.15
524.734	-151.15
524.993	-162.15
525.252	-93.15
525.511	-38.15
525.769	-84.15
526.028	-166.15
526.287	-100.15
526.546	-33.15
526.805	-51.15
527.063	-149.15
527.322	-178.15
527.581	-80.15
527.839	-67.15
528.098	-81.15
528.357	-63.15
528.616	-38.15
528.874	-74.15
529.133	-111.15
529.392	-75.15
529.65	-16.15
529.909	-55.15
530.168	-162.15
530.426	-135.15
530.685	15.85
530.943	-32.15
531.202	-163.15
531.461	-150.15
531.719	2.85
531.978	-67.15
532.236	-148.15
532.495	-61.15
532.753	5.85
533.012	-85.15
533.271	-177.15
533.529	-162.15
533.788	-76.15
534.046	-166.15
534.305	-186.15
534.563	22.85
534.822	99.85
535.08	-16.15
535.338	-118.15
535.597	-78.15
535.855	3.85
536.114	-66.15
536.372	-150.15
536.631	-88.15
536.889	4.85
537.147	-46.15
537.406	-231.15
537.664	-120.15
537.923	-42.15
538.181	-35.15
538.439	-164.15
538.698	-39.15
538.956	-31.15
539.214	-80.15
539.473	-124.15
539.731	-61.15
539.989	-9.15
540.248	-76.15
540.506	-132.15
540.764	-110.15
541.022	-17.15
541.281	6.85
541.539	-118.15
541.797	-174.15
542.055	-39.15
542.314	39.85
542.572	5.85
542.83	-145.15
543.088	-20.15
543.346	-79.15
543.604	-180.15
543.863	-83.15
544.121	40.85
544.379	-43.15
544.637	-156.15
544.895	-33.15
545.153	80.85
545.411	-69.15
545.67	-216.15
545.928	-191.15
546.186	-49.15
546.444	7.85
546.702	-92.15
546.96	-59.15
547.218	-8.15
547.476	-82.15
547.734	-159.15
547.992	-92.15
548.25	13.85
548.508	-77.15
548.766	-120.15
549.024	-113.15
549.282	-92.15
549.54	-79.15
549.798	-85.15
550.056	-102.15
550.314	-5.15
550.572	-55.15
550.83	-191.15
551.088	-94.15
551.346	11.85
551.603	-3.15
551.861	-159.15
552.119	-53.15
552.377	50.85
552.635	-53.15
552.893	-175.15
553.151	-170.15
553.409	-48.15
553.666	-51.15
553.924	-146.15
554.182	-161.15
554.44	-5.15
554.698	55.85
554.955	-97.15
555.213	-99.15
555.471	-4.15
555.729	-41.15
555.986	-231.15
556.244	-128.15
556.502	79.85
556.76	-33.15
557.017	-131.15
557.275	-53.15
557.533	62.85
557.79	13.85
558.048	-174.15
558.306	-88.15
558.563	-4.15
558.821	-126.15
559.079	-148.15
559.336	-111.15
559.594	-45.15
559.852	-135.15
560.109	-180.15
560.367	-73.15
560.624	-22.15
560.882	-71.15
561.14	-110.15
561.397	11.85
561.655	-76.15
561.912	-42.15
562.17	-151.15
562.427	-98.15
562.685	-29.15
562.942	-31.15
563.2	-160.15
563.457	-75.15
563.715	-28.15
563.972	10.85
564.23	-177.15
564.487	-199.15
564.745	-53.15
565.002	-20.15
565.26	-135.15
565.517	-127.15
565.774	-57.15
566.032	-58.15
566.289	-135.15
566.547	-95.15
566.804	18.85
567.061	-31.15
567.319	-163.15
567.576	-66.15
567.833	63.85
568.091	106.85
568.348	-77.15
568.605	-44.15
568.863	1.85
569.12	-28.15
569.377	-124.15
569.635	-121.15
569.892	-68.15
570.149	-86.15
570.406	-198.15
570.664	-159.15
570.921	-38.15
571.178	-130.15
571.435	-103.15
571.693	-81.15
571.95	-18.15
572.207	-73.15
572.464	-97.15
572.721	-13.15
572.979	74.85
573.236	-3.15
573.493	-103.15
573.75	-84.15
574.007	34.85
574.264	-56.15
574.521	-109.15
574.779	-87.15
575.036	-19.15
575.293	-75.15
575.55	-130.15
575.807	-113.15
576.064	-18.15
576.321	-57.15
576.578	-205.15
576.835	-148.15
577.092	73.85
577.349	-2.15
577.606	-215.15
577.863	-154.15
578.12	-13.15
578.377	-6.15
578.634	-231.15
578.891	-151.15
579.148	-49.15
579.405	-110.15
579.662	-187.15
579.919	-96.15
580.176	-61.15
580.433	-45.15
580.69	-98.15
580.947	-99.15
581.204	-8.15
581.461	-52.15
581.717	-151.15
581.974	7.85
582.231	37.85
582.488	-69.15
582.745	-148.15
583.002	-143.15
583.259	5.85
583.515	-27.15
583.772	-215.15
584.029	-139.15
584.286	17.85
584.543	-139.15
584.799	-174.15
585.056	-110.15
585.313	-17.15
585.57	38.85
585.826	-111.15
586.083	-32.15
586.34	152.85
586.597	-56.15
586.853	-204.15
587.11	-183.15
587.367	27.85
587.623	84.85
587.88	-27.15
588.137	-116.15
588.393	-17.15
588.65	-83.15
588.907	-153.15
589.163	-101.15
589.42	-45.15
589.677	-23.15
589.933	-138.15
590.19	-47.15
590.446	68.85
590.703	43.85
590.96	-188.15
591.216	-206.15
591.473	-77.15
591.729	-77.15
591.986	-95.15
592.242	-38.15
592.499	147.85
592.755	5.85
593.012	-189.15
593.268	-104.15
593.525	-47.15
593.781	-27.15
594.038	-125.15
594.294	-95.15
594.551	-69.15
594.807	-142.15
595.064	-147.15
595.32	-142.15
595.576	-25.15
595.833	6.85
596.089	-110.15
596.346	-27.15
596.602	24.85
596.858	76.85
597.115	-108.15
597.371	-34.15
597.628	-19.15
597.884	-86.15
598.14	-148.15
598.397	-6.15
598.653	66.85
598.909	-39.15
599.166	-177.15
599.422	-112.15
599.678	-19.15
599.934	-38.15
600.191	-165.15
600.447	-109.15
600.703	-69.15
600.959	-83.15
601.216	-218.15
601.472	-182.15
601.728	-84.15
601.984	-113.15
602.241	-200.15
602.497	-97.15
602.753	33.85
603.009	-53.15
603.265	-161.15
603.521	-22.15
603.778	70.85
604.034	-136.15
604.29	-209.15
604.546	-131.15
604.802	-26.15
605.058	-86.15
605.314	-205.15
605.571	-138.15
605.827	-86.15
606.083	-80.15
606.339	-176.15
606.595	-70.15
606.851	30.85
607.107	58.85
607.363	-163.15
607.619	-137.15
607.875	81.85
608.131	38.85
608.387	-220.15
608.643	-137.15
608.899	-57.15
609.155	-59.15
609.411	-98.15
609.667	-71.15
609.923	-53.15
610.179	-84.15
610.435	-264.15
610.691	-171.15
610.947	-21.15
611.203	-79.15
611.459	-139.15
611.714	-37.15
611.97	71.85
612.226	-1.15
612.482	-173.15
612.738	-80.15
612.994	136.85
613.25	-16.15
613.505	-169.15
613.761	-106.15
614.017	-27.15
614.273	-54.15
614.529	-124.15
614.785	-170.15
615.04	-51.15
615.296	-33.15
615.552	-109.15
615.808	-60.15
616.063	5.85
616.319	-36.15
616.575	-135.15
616.831	-99.15
617.086	116.85
617.342	59.85
617.598	-69.15
617.854	-18.15
618.109	54.85
618.365	-103.15
618.621	-181.15
618.876	-75.15
619.132	33.85
619.388	-3.15
619.643	-151.15
619.899	-63.15
620.155	17.85
620.41	4.85
620.666	-122.15
620.921	-71.15
621.177	58.85
621.433	42.85
621.688	-50.15
621.944	-122.15
622.199	-51.15
622.455	-38.15
622.71	-138.15
622.966	-113.15
623.221	-96.15
623.477	-82.15
623.732	-65.15
623.988	-151.15
624.243	-21.15
624.499	-15.15
624.754	-183.15
625.01	-148.15
625.265	-47.15
625.521	42.85
625.776	-65.15
626.032	-40.15
626.287	-15.15
626.543	-87.15
626.798	-125.15
627.053	-88.15
627.309	-28.15
627.564	-81.15
627.82	-77.15
628.075	4.85
628.33	-28.15
628.586	-139.15
628.841	-241.15
629.096	-110.15
629.352	-33.15
629.607	-131.15
629.862	-158.15
630.118	-50.15
630.373	-87.15
630.628	-35.15
630.884	-145.15
631.139	-82.15
631.394	47.85
631.649	-33.15
631.905	-149.15
632.16	-45.15
632.415	113.85
632.67	-43.15
632.926	-180.15
633.181	-173.15
633.436	-24.15
633.691	-82.15
633.946	-212.15
634.202	-186.15
634.457	-13.15
634.712	-76.15
634.967	-169.15
635.222	-199.15
635.477	-91.15
635.733	-92.15
635.988	-192.15
636.243	-175.15
636.498	-13.15
636.753	-55.15
637.008	-174.15
637.263	-73.15
637.518	-24.15
637.773	-52.15
638.028	-118.15
638.283	-84.15
638.539	26.85
638.794	-23.15
639.049	-159.15
639.304	-158.15
639.559	-94.15
639.814	-100.15
640.069	-144.15
640.324	-130.15
640.579	-28.15
640.834	-37.15
641.089	-147.15
641.344	-80.15
641.598	124.85
641.853	10.85
642.108	-157.15
642.363	-207.15
642.618	-29.15
642.873	-77.15
643.128	-184.15
643.383	-124.15
643.638	-12.15
643.893	28.85
644.148	-49.15
644.402	-133.15
644.657	-8.15
644.912	-69.15
645.167	-121.15
645.422	-35.15
645.677	-34.15
645.931	13.85
646.186	16.85
646.441	-76.15
646.696	-82.15
646.951	-80.15
647.205	-116.15
647.46	-100.15
647.715	-62.15
647.97	76.85
648.224	199.85
648.479	-19.15
648.734	84.85
648.989	39.85
649.243	-60.15
649.498	-91.15
649.753	-57.15
650.007	-24.15
650.262	-87.15
650.517	-99.15
650.771	-48.15
651.026	-110.15
651.281	-209.15
651.535	-84.15
651.79	-50.15
652.045	-71.15
652.299	-133.15
652.554	-130.15
652.809	-27.15
653.063	120.85
653.318	-2.15
653.572	-100.15
653.827	35.85
654.081	-46.15
654.336	-190.15
654.591	-164.15
654.845	-37.15
655.1	-93.15
655.354	-138.15
655.609	-70.15
655.863	30.85
656.118	6.85
656.372	-143.15
656.627	-112.15
656.881	7.85
657.136	-56.15
657.39	-161.15
657.645	-48.15
657.899	65.85
658.153	-43.15
658.408	-132.15
658.662	-66.15
658.917	-34.15
659.171	-120.15
659.426	-191.15
659.68	-122.15
659.934	-4.15
660.189	-38.15
660.443	-150.15
660.697	-3.15
660.952	67.85
661.206	-57.15
661.46	-216.15
661.715	-130.15
661.969	-13.15
662.223	-49.15
662.478	-132.15
662.732	-84.15
662.986	-48.15
663.241	-59.15
663.495	-177.15
663.749	-109.15
664.003	3.85
664.258	-63.15
664.512	-140.15
664.766	-81.15
665.02	-23.15
665.275	-14.15
665.529	-167.15
665.783	-128.15
666.037	-52.15
666.291	-60.15
666.546	-135.15
666.8	-91.15
667.054	-105.15
667.308	-69.15
667.562	-230.15
667.816	-144.15
668.071	-41.15
668.325	-149.15
668.579	-159.15
668.833	-82.15
669.087	51.85
669.341	-29.15
669.595	-173.15
669.849	-102.15
670.103	-77.15
670.357	-86.15
670.612	-110.15
670.866	-120.15
671.12	-62.15
671.374	-80.15
671.628	-94.15
671.882	-126.15
672.136	-56.15
672.39	-50.15
672.644	-203.15
672.898	-61.15
673.152	87.85
673.406	10.85
673.66	-101.15
673.914	-40.15
674.168	22.85
674.422	-49.15
674.675	-145.15
674.929	-65.15
675.183	35.85
675.437	-12.15
675.691	-82.15
675.945	-50.15
676.199	64.85
676.453	-36.15
676.707	-155.15
676.961	-153.15
677.214	-66.15
677.468	-54.15
677.722	-55.15
677.976	-87.15
678.23	-27.15
678.484	1.85
678.737	-159.15
678.991	-115.15
679.245	-43.15
679.499	-87.15
679.753	-161.15
680.006	-80.15
680.26	20.85
680.514	24.85
680.768	-115.15
681.021	-41.15
681.275	-42.15
681.529	-42.15
681.783	-100.15
682.036	-95.15
682.29	-103.15
682.544	-68.15
682.797	-100.15
683.051	-140.15
683.305	-84.15
683.559	-74.15
683.812	-54.15
684.066	-71.15
684.32	-18.15
684.573	-76.15
684.827	-65.15
685.08	-26.15
685.334	58.85
685.588	-42.15
685.841	-171.15
686.095	-23.15
686.348	4.85
686.602	-15.15
686.856	-60.15
687.109	-105.15
687.363	-53.15
687.616	-88.15
687.87	-225.15
688.123	-151.15
688.377	-46.15
688.63	-16.15
688.884	-15.15
689.137	80.85
689.391	76.85
689.644	-80.15
689.898	-181.15
690.151	-174.15
690.405	-44.15
690.658	-55.15
690.912	-103.15
691.165	-115.15
691.419	-69.15
691.672	-15.15
691.926	-80.15
692.179	-84.15
692.432	-40.15
692.686	-73.15
692.939	-191.15
693.193	-140.15
693.446	39.85
693.699	8.85
693.953	-28.15
694.206	-71.15
694.459	26.85
694.713	45.85
694.966	-113.15
695.219	-110.15
695.473	-27.15
695.726	-111.15
695.979	-186.15
696.233	-80.15
696.486	1.85
696.739	-44.15
696.992	-150.15
697.246	-31.15
697.499	40.85
697.752	-116.15
698.006	-157.15
698.259	-56.15
698.512	-56.15
698.765	-104.15
699.018	-132.15
699.272	-46.15
699.525	-70.15
699.778	-132.15
700.031	-149.15
700.284	-132.15
700.538	-22.15
700.791	-16.15
701.044	-98.15
701.297	-86.15
701.55	-49.15
701.803	-85.15
702.056	-191.15
702.31	-120.15
702.563	-10.15
702.816	-92.15
703.069	-255.15
703.322	-156.15
703.575	-37.15
703.828	3.85
704.081	-104.15
704.334	-121.15
704.587	-52.15
704.84	-115.15
705.093	-129.15
705.346	17.85
705.599	-14.15
705.853	-5.15
706.106	35.85
706.359	263.85
706.612	-0.15
706.865	15.85
707.118	-158.15
707.37	-84.15
707.623	33.85
707.876	-6.15
708.129	-48.15
708.382	33.85
708.635	107.85
708.888	-55.15
709.141	-155.15
709.394	-53.15
709.647	47.85
709.9	-79.15
710.153	-201.15
710.406	-84.15
710.658	20.85
710.911	-52.15
711.164	-169.15
711.417	-144.15
711.67	-85.15
711.923	-25.15
712.176	-148.15
712.428	-115.15
712.681	-51.15
712.934	-15.15
713.187	-105.15
713.44	-157.15
713.692	-28.15
713.945	-97.15
714.198	-182.15
714.451	-191.15
714.704	-42.15
714.956	-9.15
715.209	-7.15
715.462	-40.15
715.715	-16.15
715.967	-20.15
716.22	-151.15
716.473	-159.15
716.725	14.85
716.978	-44.15
717.231	-51.15
717.484	-14.15
717.736	-85.15
717.989	-147.15
718.242	-212.15
718.494	-96.15
718.747	13.85
718.999	-65.15
719.252	-48.15
719.505	-47.15
719.757	-29.15
720.01	-43.15
720.263	-107.15
720.515	-89.15
720.768	13.85
721.02	-4.15
721.273	-155.15
721.525	-185.15
721.778	-73.15
722.031	24.85
722.283	-127.15
722.536	-127.15
722.788	-52.15
723.041	-89.15
723.293	-157.15
723.546	-165.15
723.798	-44.15
724.051	14.85
724.303	-39.15
724.556	-49.15
724.808	98.85
725.061	31.85
725.313	-78.15
725.566	-81.15
725.818	-43.15
726.071	-64.15
726.323	-206.15
726.575	-113.15
726.828	34.85
727.08	22.85
727.333	-151.15
727.585	-99.15
727.837	-48.15
728.09	-36.15
728.342	-181.15
728.595	-75.15
728.847	92.85
729.099	-146.15
729.352	-167.15
729.604	-141.15
729.856	-35.15
730.109	-65.15
730.361	-153.15
730.613	-60.15
730.866	46.85
731.118	-90.15
731.37	-177.15
731.622	-142.15
731.875	-81.15
732.127	-28.15
732.379	-79.15
732.631	-3.15
732.884	-12.15
733.136	-85.15
733.388	-165.15
733.64	-101.15
733.893	30.85
734.145	-25.15
734.397	-173.15
734.649	-171.15
734.901	-54.15
735.154	-111.15
735.406	-193.15
735.658	-143.15
735.91	6.85
736.162	-59.15
736.414	-174.15
736.667	-88.15
736.919	-44.15
737.171	-120.15
737.423	-142.15
737.675	-102.15
737.927	2.85
738.179	-51.15
738.431	-81.15
738.684	-146.15
738.936	-74.15
739.188	-0.15
739.44	-185.15
739.692	-176.15
739.944	-143.15
740.196	-124.15
740.448	-164.15
740.7	-158.15
740.952	-100.15
741.204	-96.15
741.456	-183.15
741.708	-109.15
741.96	-97.15
742.212	-38.15
742.464	-52.15
742.716	-166.15
742.968	-72.15
743.22	-133.15
743.472	-206.15
743.724	-129.15
743.976	14.85
744.228	12.85
744.48	-218.15
744.732	-179.15
744.983	-17.15
745.235	-48.15
745.487	-118.15
745.739	-92.15
745.991	-111.15
746.243	-23.15
746.495	-190.15
746.747	-191.15
746.999	-84.15
747.25	-81.15
747.502	-113.15
747.754	-28.15
748.006	-88.15
748.258	26.85
748.51	42.85
748.761	-116.15
749.013	-59.15
749.265	20.85
749.517	5.85
749.768	34.85
750.02	57.85
750.272	-7.15
750.524	-164.15
750.776	-212.15
751.027	-14.15
751.279	24.85
751.531	-196.15
751.782	-97.15
752.034	17.85
752.286	-80.15
752.538	-217.15
752.789	-116.15
753.041	-17.15
753.293	-44.15
753.544	-118.15
753.796	-126.15
754.048	-12.15
754.299	-17.15
754.551	-78.15
754.803	-135.15
755.054	-105.15
755.306	-41.15
755.558	-140.15
755.809	-119.15
756.061	31.85
756.312	-79.15
756.564	-117.15
756.816	-89.15
757.067	-64.15
757.319	-96.15
757.57	-132.15
757.822	-51.15
758.073	35.85
758.325	-18.15
758.577	-166.15
758.828	-132.15
759.08	84.85
759.331	82.85
759.583	-131.15
759.834	-37.15
760.086	-59.15
760.337	-89.15
760.589	-144.15
760.84	-130.15
761.092	-44.15
761.343	-63.15
761.595	-204.15
761.846	-68.15
762.097	-45.15
762.349	-96.15
762.6	-242.15
762.852	-89.15
763.103	56.85
763.355	-101.15
763.606	-196.15
763.857	-40.15
764.109	73.85
764.36	-25.15
764.612	-115.15
764.863	-32.15
765.114	-0.15
765.366	-128.15
765.617	-229.15
765.868	-156.15
766.12	9.85
766.371	2.85
766.622	-185.15
766.874	-109.15
767.125	24.85
767.376	-89.15
767.628	-160.15
767.879	-104.15
768.13	4.85
768.381	-23.15
768.633	-81.15
768.884	-85.15
769.135	-1.15
769.386	-22.15
769.638	-96.15
769.889	-76.15
770.14	-31.15
770.391	-133.15
770.643	-191.15
770.894	-187.15
771.145	-71.15
771.396	-133.15
771.647	-214.15
771.899	-81.15
772.15	11.85
772.401	-47.15
772.652	-187.15
772.903	-164.15
773.154	163.85
773.406	413.85
773.657	-115.15
773.908	-128.15
774.159	-42.15
774.41	-22.15
774.661	-158.15
774.912	-104.15
775.163	58.85
775.414	67.85
775.666	-173.15
775.917	-157.15
776.168	-95.15
776.419	-100.15
776.67	-190.15
776.921	-172.15
777.172	-84.15
777.423	-74.15
777.674	-42.15
777.925	-53.15
778.176	-108.15
778.427	-101.15
778.678	-171.15
778.929	-142.15
779.18	-54.15
779.431	-134.15
779.682	-118.15
779.933	-82.15
780.184	-41.15
780.435	-83.15
780.686	-119.15
780.937	-67.15
781.188	-20.15
781.439	60.85
781.69	-7.15
781.941	-76.15
782.191	-54.15
782.442	-60.15
782.693	-155.15
782.944	-170.15
783.195	-77.15
783.446	-65.15
783.697	-46.15
783.948	-151.15
784.199	-111.15
784.449	-129.15
784.7	-121.15
784.951	-80.15
785.202	54.85
785.453	-5.15
785.704	-190.15
785.954	-190.15
786.205	-92.15
786.456	-162.15
786.707	-239.15
786.958	-179.15
787.208	-75.15
787.459	-113.15
787.71	-97.15
787.961	-120.15
788.211	-76.15
788.462	-75.15
788.713	-124.15
788.964	-143.15
789.214	-32.15
789.465	-33.15
789.716	-95.15
789.967	-92.15
790.217	-102.15
790.468	-149.15
790.719	-197.15
790.969	-153.15
791.22	-105.15
791.471	-36.15
791.721	3.85
791.972	-114.15
792.223	-33.15
792.473	-114.15
792.724	-125.15
792.975	-135.15
793.225	-56.15
793.476	-97.15
793.726	-164.15
793.977	-60.15
794.228	58.85
794.478	-61.15
794.729	-156.15
794.979	-50.15
795.23	-27.15
795.481	-70.15
795.731	-168.15
795.982	-107.15
796.232	-118.15
796.483	-172.15
796.733	-205.15
796.984	-153.15
797.234	-63.15
797.485	-40.15
797.735	-208.15
797.986	-160.15
798.236	-28.15
798.487	-96.15
798.737	-109.15
798.988	-16.15
799.238	32.85
799.489	-84.15
799.739	-177.15
799.99	-101.15
800.24	-2.15
800.491	52.85
800.741	-84.15
800.991	-151.15
801.242	-85.15
801.492	-67.15
801.743	-130.15
801.993	92.85
802.244	319.85
802.494	-46.15
802.744	-105.15
802.995	-67.15
803.245	-58.15
803.495	-94.15
803.746	-150.15
803.996	-48.15
804.246	-49.15
804.497	-44.15
804.747	-167.15
804.997	-107.15
805.248	-97.15
805.498	-136.15
805.748	-104.15
805.999	-197.15
806.249	-121.15
806.499	-126.15
806.75	-223.15
807	-181.15
807.25	-68.15
807.5	-130.15
807.751	-127.15
808.001	-57.15
808.251	-52.15
808.501	22.85
808.752	14.85
809.002	-55.15
809.252	-68.15
809.502	-117.15
809.752	-139.15
810.003	-182.15
810.253	-97.15
810.503	-68.15
810.753	-33.15
811.003	-32.15
811.254	-5.15
811.504	-84.15
811.754	-113.15
812.004	-106.15
812.254	129.85
812.504	-32.15
812.754	-133.15
813.005	-55.15
813.255	23.85
813.505	-58.15
813.755	-160.15
814.005	-83.15
814.255	-54.15
814.505	-95.15
814.755	-209.15
815.005	-175.15
815.255	-53.15
815.505	-100.15
815.756	-58.15
816.006	-61.15
816.256	-107.15
816.506	-150.15
816.756	-203.15
817.006	-141.15
817.256	-50.15
817.506	-64.15
817.756	-127.15
818.006	-101.15
818.256	-51.15
818.506	-73.15
818.756	-184.15
819.006	-117.15
819.256	-51.15
819.506	-119.15
819.756	-163.15
820.006	-70.15
820.255	-26.15
820.505	-53.15
820.755	-163.15
821.005	-126.15
821.255	2.85
821.505	-73.15
821.755	-154.15
822.005	-56.15
822.255	17.85
822.505	-84.15
822.755	-65.15
823.004	-188.15
823.254	-164.15
823.504	-72.15
823.754	-64.15
824.004	-140.15
824.254	-36.15
824.504	-36.15
824.753	-20.15
825.003	-23.15
825.253	8.85
825.503	-109.15
825.753	-136.15
826.002	-58.15
826.252	127.85
826.502	-61.15
826.752	-142.15
827.002	-121.15
827.251	-23.15
827.501	-97.15
827.751	-172.15
828.001	-124.15
828.25	-22.15
828.5	-150.15
828.75	-191.15
829	-97.15
829.249	31.85
829.499	-115.15
829.749	-135.15
829.998	-64.15
830.248	-32.15
830.498	-149.15
830.748	-144.15
830.997	-78.15
831.247	-18.15
831.497	-26.15
831.746	-99.15
831.996	-16.15
832.246	81.85
832.495	87.85
832.745	-144.15
832.994	-139.15
833.244	22.85
833.494	-97.15
833.743	-191.15
833.993	-114.15
834.243	-35.15
834.492	-59.15
834.742	-73.15
834.991	-87.15
835.241	68.85
835.49	-75.15
835.74	-182.15
835.99	-111.15
836.239	-14.15
836.489	-6.15
836.738	-97.15
836.988	-208.15
837.237	-84.15
837.487	28.85
837.736	-91.15
837.986	-133.15
838.235	-67.15
838.485	-103.15
838.734	-146.15
838.984	-65.15
839.233	-75.15
839.483	-166.15
839.732	-191.15
839.982	-85.15
840.231	-21.15
840.481	-19.15
840.73	-147.15
840.979	-82.15
841.229	-56.15
841.478	-78.15
841.728	-213.15
841.977	-223.15
842.227	-148.15
842.476	-185.15
842.725	-214.15
842.975	-143.15
843.224	-36.15
843.474	5.85
843.723	-120.15
843.972	-124.15
844.222	-67.15
844.471	-14.15
844.72	-132.15
844.97	-141.15
845.219	-35.15
845.468	-33.15
845.718	-97.15
845.967	-81.15
846.216	-32.15
846.466	7.85
846.715	-117.15
846.964	-89.15
847.214	-89.15
847.463	-134.15
847.712	-109.15
847.961	-135.15
848.211	-62.15
848.46	-64.15
848.709	-129.15
848.958	-155.15
849.208	-79.15
849.457	-89.15
849.706	-85.15
849.955	-115.15
850.205	-126.15
850.454	12.85
850.703	42.85
850.952	-29.15
851.201	-2.15
851.451	-60.15
851.7	-43.15
851.949	-154.15
852.198	-64.15
852.447	-71.15
852.696	-163.15
852.946	-121.15
853.195	-15.15
853.444	-21.15
853.693	-198.15
853.942	-184.15
854.191	-93.15
854.44	-71.15
854.689	-114.15
854.939	-137.15
855.188	-149.15
855.437	-140.15
855.686	-150.15
855.935	-113.15
856.184	-31.15
856.433	4.85
856.682	-77.15
856.931	-68.15
857.18	-38.15
857.429	-124.15
857.678	-157.15
857.927	-93.15
858.176	-68.15
858.425	-134.15
858.674	-214.15
858.924	-100.15
859.173	-78.15
859.422	-55.15
859.671	-189.15
859.92	-129.15
860.169	-87.15
860.417	-36.15
860.666	-114.15
860.915	-148.15
861.164	-93.15
861.413	-125.15
861.662	-196.15
861.911	-144.15
862.16	-22.15
862.409	-59.15
862.658	-198.15
862.907	-163.15
863.156	-54.15
863.405	-59.15
863.654	-167.15
863.903	-219.15
864.151	-102.15
864.4	-70.15
864.649	-120.15
864.898	-56.15
865.147	-17.15
865.396	13.85
865.645	-151.15
865.894	-99.15
866.142	29.85
866.391	-76.15
866.64	-178.15
866.889	-71.15
867.138	79.85
867.387	-42.15
867.635	-145.15
867.884	-86.15
868.133	6.85
868.382	-56.15
868.631	-187.15
868.879	-175.15
869.128	-62.15
869.377	-74.15
869.626	-118.15
869.874	-126.15
870.123	-19.15
870.372	-71.15
870.621	-181.15
870.869	-145.15
871.118	-49.15
871.367	-58.15
871.616	-165.15
871.864	-66.15
872.113	-27.15
872.362	-62.15
872.61	-118.15
872.859	-57.15
873.108	16.85
873.357	-77.15
873.605	-183.15
873.854	-164.15
874.103	-126.15
874.351	-108.15
874.6	-129.15
874.848	-80.15
875.097	-44.15
875.346	-45.15
875.594	-157.15
875.843	-51.15
876.092	111.85
876.34	-11.15
876.589	-143.15
876.837	-238.15
877.086	-139.15
877.335	-65.15
877.583	-108.15
877.832	-58.15
878.08	65.85
878.329	-54.15
878.578	-142.15
878.826	-109.15
879.075	-23.15
879.323	-20.15
879.572	-111.15
879.82	25.85
880.069	-25.15
880.317	-8.15
880.566	-140.15
880.814	-49.15
881.063	59.85
881.311	-32.15
881.56	-2.15
881.808	-92.15
882.057	-19.15
882.305	-53.15
882.554	-45.15
882.802	-143.15
883.051	-87.15
883.299	-59.15
883.548	-121.15
883.796	-22.15
884.045	-35.15
884.293	-92.15
884.541	-197.15
884.79	-217.15
885.038	-103.15
885.287	-98.15
885.535	-75.15
885.783	-48.15
886.032	-103.15
886.28	-138.15
886.529	-180.15
886.777	-116.15
887.025	51.85
887.274	-68.15
887.522	-147.15
887.77	-117.15
888.019	-104.15
888.267	-123.15
888.516	-189.15
888.764	-146.15
889.012	-75.15
889.261	-81.15
889.509	-161.15
889.757	-141.15
890.005	-102.15
890.254	-150.15
890.502	-117.15
890.75	108.85
890.999	86.85
891.247	-1.15
891.495	-51.15
891.743	-82.15
891.992	68.85
892.24	-41.15
892.488	-173.15
892.737	-141.15
892.985	-54.15
893.233	-59.15
893.481	-108.15
893.729	-135.15
893.978	39.85
894.226	52.85
894.474	-115.15
894.722	-120.15
894.97	-88.15
895.219	-115.15
895.467	-101.15
895.715	-54.15
895.963	-74.15
896.211	-127.15
896.46	-201.15
896.708	-83.15
896.956	-8.15
897.204	49.85
897.452	-36.15
897.7	-109.15
897.948	-31.15
898.197	-75.15
898.445	-126.15
898.693	-102.15
898.941	-38.15
899.189	-52.15
899.437	-109.15
899.685	-8.15
899.933	-59.15
900.181	-52.15
900.43	-139.15
900.678	-118.15
900.926	-36.15
901.174	-74.15
901.422	-128.15
901.67	-107.15
901.918	-26.15
902.166	-65.15
902.414	-187.15
902.662	-145.15
902.91	-41.15
903.158	-64.15
903.406	-108.15
903.654	-102.15
903.902	-65.15
904.15	-88.15
904.398	-201.15
904.646	-100.15
904.894	-6.15
905.142	-11.15
905.39	-54.15
905.638	-123.15
905.886	-78.15
906.134	-89.15
906.382	-91.15
906.63	-141.15
906.878	-51.15
907.126	-72.15
907.374	-133.15
907.622	-123.15
907.869	-13.15
908.117	-26.15
908.365	-104.15
908.613	-124.15
908.861	-113.15
909.109	-151.15
909.357	-173.15
909.605	-116.15
909.853	-16.15
910.1	-72.15
910.348	-247.15
910.596	-206.15
910.844	-23.15
911.092	24.85
911.34	-96.15
911.588	-72.15
911.835	-29.15
912.083	-55.15
912.331	-70.15
912.579	-35.15
912.827	121.85
913.075	-12.15
913.322	-147.15
913.57	-136.15
913.818	-3.15
914.066	-63.15
914.313	-132.15
914.561	-60.15
914.809	-37.15
915.057	-70.15
915.305	-117.15
915.552	-110.15
915.8	-2.15
916.048	-77.15
916.296	-157.15
916.543	-45.15
916.791	57.85
917.039	-46.15
917.286	-162.15
917.534	-133.15
917.782	-21.15
918.03	-94.15
918.277	-196.15
918.525	-191.15
918.773	-57.15
919.02	-81.15
919.268	-137.15
919.516	-107.15
919.763	-112.15
920.011	-89.15
920.259	-187.15
920.506	-102.15
920.754	-6.15
921.002	-26.15
921.249	-61.15
921.497	-86.15
921.745	-55.15
921.992	-46.15
922.24	-181.15
922.487	-44.15
922.735	98.85
922.983	12.85
923.23	-77.15
923.478	-135.15
923.725	-38.15
923.973	-31.15
924.221	-57.15
924.468	-12.15
924.716	-30.15
924.963	-67.15
925.211	-119.15
925.458	-44.15
925.706	56.85
925.953	77.85
926.201	-120.15
926.448	-125.15
926.696	-19.15
926.944	-36.15
927.191	-113.15
927.439	-113.15
927.686	-83.15
927.934	-60.15
928.181	-152.15
928.429	-151.15
928.676	-89.15
928.923	-143.15
929.171	-172.15
929.418	-20.15
929.666	32.85
929.913	10.85
930.161	-188.15
930.408	-158.15
930.656	-69.15
930.903	-21.15
931.151	-151.15
931.398	-92.15
931.645	20.85
931.893	-72.15
932.14	-110.15
932.388	-94.15
932.635	46.85
932.882	97.85
933.13	-19.15
933.377	-100.15
933.625	-1.15
933.872	-84.15
934.119	-163.15
934.367	-109.15
934.614	-102.15
934.861	-113.15
935.109	-102.15
935.356	-49.15
935.603	-7.15
935.851	-77.15
936.098	-136.15
936.345	-26.15
936.593	-11.15
936.84	-74.15
937.087	-189.15
937.335	-116.15
937.582	-42.15
937.829	-36.15
938.077	-78.15
938.324	-84.15
938.571	-13.15
938.818	-89.15
939.066	-136.15
939.313	-151.15
939.56	-26.15
939.807	-20.15
940.055	-136.15
940.302	-113.15
940.549	48.85
940.796	-20.15
941.044	-87.15
941.291	-67.15
941.538	106.85
941.785	-37.15
942.033	-111.15
942.28	-33.15
942.527	7.85
942.774	-27.15
943.021	-162.15
943.269	-137.15
943.516	-30.15
943.763	-14.15
944.01	-93.15
944.257	-12.15
944.504	51.85
944.752	0.85
944.999	-53.15
945.246	-123.15
945.493	-48.15
945.74	-69.15
945.987	-140.15
946.234	-57.15
946.482	30.85
946.729	-80.15
946.976	-143.15
947.223	-114.15
947.47	45.85
947.717	-8.15
947.964	-0.15
948.211	-40.15
948.458	18.85
948.705	-31.15
948.952	-133.15
949.2	-62.15
949.447	70.85
949.694	62.85
949.941	-105.15
950.188	-126.15
950.435	-102.15
950.682	-67.15
950.929	-179.15
951.176	-136.15
951.423	23.85
951.67	7.85
951.917	-25.15
952.164	-49.15
952.411	16.85
952.658	66.85
952.905	-83.15
953.152	-144.15
953.399	-12.15
953.646	-10.15
953.893	-124.15
954.14	-84.15
954.387	-37.15
954.634	-65.15
954.881	-113.15
955.128	-39.15
955.375	-59.15
955.622	-52.15
955.869	-56.15
956.115	-75.15
956.362	3.85
956.609	-20.15
956.856	-100.15
957.103	-101.15
957.35	10.85
957.597	-2.15
957.844	-97.15
958.091	-68.15
958.338	13.85
958.585	-36.15
958.831	-218.15
959.078	-146.15
959.325	21.85
959.572	-72.15
959.819	-150.15
960.066	-192.15
960.313	-58.15
960.559	-66.15
960.806	-197.15
961.053	-148.15
961.3	10.85
961.547	23.85
961.794	-171.15
962.04	7.85
962.287	34.85
962.534	-99.15
962.781	-137.15
963.028	-64.15
963.274	49.85
963.521	-40.15
963.768	-123.15
964.015	-82.15
964.262	75.85
964.508	-80.15
964.755	-178.15
965.002	-141.15
965.249	-85.15
965.495	-140.15
965.742	-177.15
965.989	-152.15
966.236	-39.15
966.482	-109.15
966.729	-153.15
966.976	-171.15
967.222	-96.15
967.469	-83.15
967.716	-154.15
967.963	-149.15
968.209	-52.15
968.456	-87.15
968.703	-206.15
968.949	-104.15
969.196	71.85
969.443	77.85
969.689	-158.15
969.936	-194.15
970.183	-91.15
970.429	-150.15
970.676	-200.15
970.923	-126.15
971.169	-64.15
971.416	-113.15
971.663	-137.15
971.909	-99.15
972.156	-39.15
972.402	-21.15
972.649	-109.15
972.896	-69.15
973.142	-47.15
973.389	-18.15
973.635	-121.15
973.882	-25.15
974.129	33.85
974.375	-87.15
974.622	-164.15
974.868	-154.15
975.115	-69.15
975.361	-109.15
975.608	-132.15
975.855	-16.15
976.101	10.85
976.348	-71.15
976.594	-129.15
976.841	-64.15
977.087	-64.15
977.334	-34.15
977.58	-169.15
977.827	-159.15
978.073	-20.15
978.32	-61.15
978.566	-171.15
978.813	-89.15
979.059	-48.15
979.306	-77.15
979.552	-159.15
979.799	-84.15
980.045	-97.15
980.292	-108.15
980.538	-167.15
980.785	-147.15
981.031	-117.15
981.278	-138.15
981.524	-209.15
981.771	-44.15
982.017	103.85
982.263	4.85
982.51	-150.15
982.756	-89.15
983.003	-10.15
983.249	-54.15
983.495	-139.15
983.742	-144.15
983.988	-79.15
984.235	-54.15
984.481	-164.15
984.727	-161.15
984.974	-24.15
985.22	-20.15
985.467	-96.15
985.713	-107.15
985.959	0.85
986.206	-15.15
986.452	-108.15
986.698	-67.15
986.945	-45.15
987.191	8.85
987.437	-1.15
987.684	-49.15
987.93	108.85
988.176	23.85
988.423	-163.15
988.669	-91.15
988.915	86.85
989.162	-60.15
989.408	-184.15
989.654	-97.15
989.901	-67.15
990.147	-72.15
990.393	-71.15
990.639	-22.15
990.886	1.85
991.132	63.85
991.378	11.85
991.625	118.85
991.871	76.85
992.117	-3.15
992.363	-60.15
992.61	-39.15
992.856	66.85
993.102	-58.15
993.348	-121.15
993.594	-97.15
993.841	-55.15
994.087	71.85
994.333	-57.15
994.579	-80.15
994.826	-17.15
995.072	-6.15
995.318	-213.15
995.564	-164.15
995.81	-25.15
996.057	-79.15
996.303	-185.15
996.549	-163.15
996.795	-53.15
997.041	-58.15
997.287	-109.15
997.534	-117.15
997.78	-58.15
998.026	-36.15
998.272	-140.15
998.518	-155.15
998.764	-25.15
999.01	7.85
999.256	-88.15
999.503	-132.15
999.749	-103.15
999.995	-149.15
1000.241	-170.15
1000.487	-88.15
1000.733	-32.15
1000.979	-67.15
1001.225	-105.15
1001.471	-52.15
1001.718	-3.15
1001.964	33.85
1002.21	-137.15
1002.456	-116.15
1002.702	41.85
1002.948	-58.15
1003.194	-133.15
1003.44	-162.15
1003.686	-52.15
1003.932	-106.15
1004.178	-163.15
1004.424	-95.15
1004.67	52.85
1004.916	30.85
1005.162	-89.15
1005.408	-124.15
1005.654	2.85
1005.9	-156.15
1006.146	-214.15
1006.392	-128.15
1006.638	-34.15
1006.884	-85.15
1007.13	-162.15
1007.376	-185.15
1007.622	-7.15
1007.868	6.85
1008.114	-120.15
1008.36	-54.15
1008.606	-17.15
1008.852	2.85
1009.098	-57.15
1009.344	-24.15
1009.59	-40.15
1009.836	-174.15
1010.082	-232.15
1010.328	-127.15
1010.574	-49.15
1010.82	-131.15
1011.065	-204.15
1011.311	-190.15
1011.557	-81.15
1011.803	-98.15
1012.049	-155.15
1012.295	-107.15
1012.541	-76.15
1012.787	-77.15
1013.033	-207.15
1013.278	-208.15
1013.524	-63.15
1013.77	20.85
1014.016	-104.15
1014.262	-100.15
1014.508	22.85
1014.754	-137.15
1015	-176.15
1015.245	-25.15
1015.491	4.85
1015.737	-25.15
1015.983	-153.15
1016.229	-188.15
1016.475	-57.15
1016.72	66.85
1016.966	83.85
1017.212	-35.15
1017.458	28.85
1017.704	-53.15
1017.949	-172.15
1018.195	-6.15
1018.441	86.85
1018.687	32.85
1018.933	-106.15
1019.178	-111.15
1019.424	46.85
1019.67	68.85
1019.916	-153.15
1020.161	-101.15
1020.407	-39.15
1020.653	-101.15
1020.899	-166.15
1021.144	-100.15
1021.39	-3.15
1021.636	-115.15
1021.882	-207.15
1022.127	-86.15
1022.373	66.85
1022.619	13.85
1022.865	-100.15
1023.11	-98.15
1023.356	12.85
1023.602	-56.15
1023.847	-119.15
1024.093	-71.15
1024.339	-96.15
1024.584	-110.15
1024.83	-115.15
1025.076	-117.15
1025.321	14.85
1025.567	-12.15
1025.813	-117.15
1026.058	-47.15
1026.304	8.85
1026.55	-79.15
1026.795	-99.15
1027.041	-102.15
1027.287	-30.15
1027.532	-8.15
1027.778	-42.15
1028.024	-70.15
1028.269	-23.15
1028.515	-119.15
1028.76	-161.15
1029.006	-75.15
1029.252	40.85
1029.497	-45.15
1029.743	-64.15
1029.989	-114.15
1030.234	13.85
1030.48	90.85
1030.725	-118.15
1030.971	-92.15
1031.216	40.85
1031.462	-38.15
1031.708	-187.15
1031.953	-143.15
1032.199	-44.15
1032.444	-28.15
1032.69	-67.15
1032.935	-97.15
1033.181	26.85
1033.426	-92.15
1033.672	-221.15
1033.918	-161.15
1034.163	-60.15
1034.409	-75.15
1034.654	-127.15
1034.9	-45.15
1035.145	29.85
1035.391	-57.15
1035.636	-168.15
1035.882	-82.15
1036.127	-91.15
1036.373	-121.15
1036.618	-218.15
1036.864	-120.15
1037.109	34.85
1037.355	-67.15
1037.6	-153.15
1037.845	-107.15
1038.091	105.85
1038.336	70.85
1038.582	74.85
1038.827	141.85
1039.073	-7.15
1039.318	-103.15
1039.564	-199.15
1039.809	-124.15
1040.055	63.85
1040.3	43.85
1040.545	-123.15
1040.791	-119.15
1041.036	-48.15
1041.282	-24.15
1041.527	30.85
1041.772	-147.15
1042.018	-85.15
1042.263	-45.15
1042.509	-187.15
1042.754	-136.15
1042.999	-28.15
1043.245	-58.15
1043.49	-213.15
1043.736	-142.15
1043.981	-62.15
1044.226	-46.15
1044.472	-57.15
1044.717	-42.15
1044.962	50.85
1045.208	-23.15
1045.453	-249.15
1045.698	-172.15
1045.944	33.85
1046.189	-19.15
1046.434	-118.15
1046.68	-94.15
1046.925	68.85
1047.17	-81.15
1047.416	-249.15
1047.661	-130.15
1047.906	10.85
1048.152	-11.15
1048.397	-107.15
1048.642	-114.15
1048.887	81.85
1049.133	83.85
1049.378	-99.15
1049.623	-131.15
1049.869	3.85
1050.114	-58.15
1050.359	-133.15
1050.604	-58.15
1050.85	82.85
1051.095	-47.15
1051.34	-134.15
1051.585	-61.15
1051.831	117.85
1052.076	-34.15
1052.321	-238.15
1052.566	-132.15
1052.812	46.85
1053.057	-36.15
1053.302	-111.15
1053.547	-29.15
1053.792	35.85
1054.038	32.85
1054.283	-179.15
1054.528	-104.15
1054.773	-41.15
1055.018	-31.15
1055.264	-140.15
1055.509	-161.15
1055.754	-44.15
1055.999	-105.15
1056.244	-182.15
1056.49	-100.15
1056.735	-15.15
1056.98	-84.15
1057.225	-184.15
1057.47	22.85
1057.715	-70.15
1057.96	-131.15
1058.206	-178.15
1058.451	-77.15
1058.696	39.85
1058.941	-9.15
1059.186	-167.15
1059.431	-147.15
1059.676	49.85
1059.922	-12.15
1060.167	66.85
1060.412	227.85
1060.657	20.85
1060.902	-48.15
1061.147	-216.15
1061.392	-125.15
1061.637	9.85
1061.882	-56.15
1062.127	-200.15
1062.373	-180.15
1062.618	81.85
1062.863	95.85
1063.108	-93.15
1063.353	-147.15
1063.598	-56.15
1063.843	-83.15
1064.088	-163.15
1064.333	-167.15
1064.578	4.85
1064.823	18.85
1065.068	-229.15
1065.313	-147.15
1065.558	7.85
1065.803	9.85
1066.048	-184.15
1066.293	-178.15
1066.538	43.85
1066.783	-23.15
1067.028	-195.15
1067.273	-179.15
1067.518	-7.15
1067.763	-49.15
1068.008	-216.15
1068.253	-148.15
1068.498	39.85
1068.743	-27.15
1068.988	-195.15
1069.233	-166.15
1069.478	38.85
1069.723	98.85
1069.968	-97.15
1070.213	-55.15
1070.458	39.85
1070.703	-63.15
1070.948	-212.15
1071.193	-100.15
1071.438	28.85
1071.683	49.85
1071.928	-79.15
1072.173	-93.15
1072.418	-34.15
1072.663	-61.15
1072.908	-185.15
1073.152	-120.15
1073.397	48.85
1073.642	-68.15
1073.887	-118.15
1074.132	3.85
1074.377	-8.15
1074.622	-36.15
1074.867	-163.15
1075.112	-91.15
1075.357	102.85
1075.601	-43.15
1075.846	-101.15
1076.091	3.85
1076.336	42.85
1076.581	-93.15
1076.826	-204.15
1077.071	-97.15
1077.315	151.85
1077.56	90.85
1077.805	-127.15
1078.05	-108.15
1078.295	-45.15
1078.54	-64.15
1078.785	-203.15
1079.029	-149.15
1079.274	19.85
1079.519	-105.15
1079.764	-212.15
1080.009	-65.15
1080.253	18.85
1080.498	-85.15
1080.743	-232.15
1080.988	-89.15
1081.233	116.85
1081.478	54.85
1081.722	-143.15
1081.967	-40.15
1082.212	123.85
1082.457	0.85
1082.701	-130.15
1082.946	-119.15
1083.191	18.85
1083.436	-85.15
1083.681	-225.15
1083.925	-129.15
1084.17	-27.15
1084.415	5.85
1084.66	-211.15
1084.904	-121.15
1085.149	-18.15
1085.394	-56.15
1085.639	-213.15
1085.883	-119.15
1086.128	124.85
1086.373	124.85
1086.617	-103.15
1086.862	-156.15
1087.107	-24.15
1087.352	-81.15
1087.596	-169.15
1087.841	-34.15
1088.086	6.85
1088.33	-20.15
1088.575	-238.15
1088.82	-103.15
1089.064	67.85
1089.309	-87.15
1089.554	-197.15
1089.798	-167.15
1090.043	25.85
1090.288	-26.15
1090.533	-219.15
1090.777	-133.15
1091.022	16.85
1091.266	47.85
1091.511	-125.15
1091.756	-53.15
1092	119.85
1092.245	84.85
1092.49	-172.15
1092.734	-121.15
1092.979	67.85
1093.224	-39.15
1093.468	-197.15
1093.713	-131.15
1093.957	20.85
1094.202	-51.15
1094.447	-234.15
1094.691	-104.15
1094.936	43.85
1095.181	-7.15
1095.425	-173.15
1095.67	-137.15
1095.914	25.85
1096.159	-0.15
1096.403	-166.15
1096.648	-75.15
1096.893	55.85
1097.137	-89.15
1097.382	-245.15
1097.626	-149.15
1097.871	9.85
1098.115	-65.15
1098.36	-225.15
1098.605	-104.15
1098.849	-39.15
1099.094	-129.15
1099.338	-208.15
1099.583	-103.15
1099.827	132.85
1100.072	24.85
1100.316	-165.15
1100.561	-92.15
1100.805	61.85
1101.05	19.85
1101.294	-183.15
1101.539	-163.15
1101.783	0.85
1102.028	-4.15
1102.273	-144.15
1102.517	-78.15
1102.761	39.85
1103.006	-72.15
1103.25	-271.15
1103.495	-163.15
1103.739	39.85
1103.984	93.85
1104.228	-114.15
1104.473	-44.15
1104.717	42.85
1104.962	4.85
1105.206	-121.15
1105.451	-139.15
1105.695	28.85
1105.94	-12.15
1106.184	-157.15
1106.429	-108.15
1106.673	-1.15
1106.917	58.85
1107.162	-154.15
1107.406	-6.15
1107.651	133.85
1107.895	-92.15
1108.14	-197.15
1108.384	-108.15
1108.628	118.85
1108.873	111.85
1109.117	-130.15
1109.362	-113.15
1109.606	-27.15
1109.85	-28.15
1110.095	-157.15
1110.339	-87.15
1110.584	96.85
1110.828	24.85
1111.072	-92.15
1111.317	-122.15
1111.561	-19.15
1111.806	-28.15
1112.05	-175.15
1112.294	-83.15
1112.539	22.85
1112.783	-6.15
1113.027	-121.15
1113.272	-130.15
1113.516	-45.15
1113.76	-57.15
1114.005	-145.15
1114.249	-84.15
1114.493	75.85
1114.738	87.85
1114.982	-52.15
1115.226	-103.15
1115.471	-21.15
1115.715	-25.15
1115.959	-182.15
1116.204	-178.15
1116.448	-11.15
1116.692	-90.15
1116.937	-164.15
1117.181	-8.15
1117.425	-16.15
1117.67	-76.15
1117.914	-154.15
1118.158	-103.15
1118.402	129.85
1118.647	71.85
1118.891	-89.15
1119.135	-35.15
1119.38	108.85
1119.624	12.85
1119.868	-139.15
1120.112	-143.15
1120.357	-59.15
1120.601	-128.15
1120.845	-229.15
1121.089	-146.15
1121.334	29.85
