Data from HR4C21111__49__10-17-34-934.txt Node

Date: Mon Feb 22 10:17:34 IST 2021
User: Kapil
Spectrometer: HR4C2111
Trigger mode: 4
Integration Time (sec): 2.300000E0
Scans to average: 1
Electric dark correction enabled: true
Nonlinearity correction enabled: false
Boxcar width: 0
XAxis mode: Wavelengths
Number of Pixels in Spectrum: 3648
>>>>>Begin Spectral Data<<<<<
189.472	-448.23
189.745	-448.23
190.017	-448.23
190.289	-466.23
190.561	-299.23
190.834	-23.23
191.106	-113.23
191.378	8.77
191.65	-1.23
191.923	-133.23
192.195	-112.23
192.467	135.77
192.739	131.77
193.011	-21.23
193.284	81.77
193.556	176.77
193.828	-16.23
194.1	-114.23
194.372	-125.23
194.644	48.77
194.916	47.77
195.188	-168.23
195.46	-84.23
195.732	50.77
196.004	-26.23
196.276	-106.23
196.548	-63.23
196.82	75.77
197.092	51.77
197.364	-138.23
197.636	-86.23
197.908	16.77
198.18	-56.23
198.452	-99.23
198.724	-49.23
198.996	44.77
199.268	77.77
199.54	-17.23
199.811	-117.23
200.083	93.77
200.355	11.77
200.627	-199.23
200.899	-69.23
201.171	59.77
201.442	-66.23
201.714	-192.23
201.986	-101.23
202.258	59.77
202.529	108.77
202.801	-4.23
203.073	60.77
203.345	168.77
203.616	-0.23
203.888	-156.23
204.16	-164.23
204.431	65.77
204.703	-10.23
204.974	-136.23
205.246	-17.23
205.518	168.77
205.789	-5.23
206.061	-139.23
206.332	-125.23
206.604	2.77
206.876	83.77
207.147	123.77
207.419	20.77
207.69	133.77
207.962	-37.23
208.233	-200.23
208.505	-0.23
208.776	157.77
209.047	79.77
209.319	-132.23
209.59	-94.23
209.862	96.77
210.133	-49.23
210.404	-162.23
210.676	-109.23
210.947	68.77
211.219	62.77
211.49	-135.23
211.761	-66.23
212.033	17.77
212.304	-53.23
212.575	-194.23
212.846	-107.23
213.118	8.77
213.389	-53.23
213.66	-106.23
213.931	-42.23
214.203	12.77
214.474	-52.23
214.745	-132.23
215.016	122.77
215.287	430.77
215.559	57.77
215.83	-138.23
216.101	-82.23
216.372	-5.23
216.643	70.77
216.914	4.77
217.185	-92.23
217.456	127.77
217.727	7.77
217.998	-171.23
218.269	-79.23
218.54	20.77
218.811	-22.23
219.082	-116.23
219.353	-89.23
219.624	-21.23
219.895	-40.23
220.166	-146.23
220.437	-126.23
220.708	74.77
220.979	-8.23
221.25	-152.23
221.521	-107.23
221.792	23.77
222.063	74.77
222.334	30.77
222.604	157.77
222.875	157.77
223.146	81.77
223.417	-176.23
223.688	-53.23
223.958	95.77
224.229	-61.23
224.5	-200.23
224.771	-80.23
225.041	72.77
225.312	41.77
225.583	-112.23
225.854	-69.23
226.124	83.77
226.395	-33.23
226.666	-149.23
226.936	-98.23
227.207	58.77
227.478	-59.23
227.748	-115.23
228.019	40.77
228.289	232.77
228.56	-50.23
228.831	-67.23
229.101	31.77
229.372	45.77
229.642	-26.23
229.913	-163.23
230.183	-138.23
230.454	-8.23
230.724	-6.23
230.995	-112.23
231.265	-85.23
231.536	59.77
231.806	35.77
232.076	-111.23
232.347	-130.23
232.617	19.77
232.888	0.77
233.158	-87.23
233.428	-142.23
233.699	-11.23
233.969	-48.23
234.239	-170.23
234.51	-95.23
234.78	46.77
235.05	-8.23
235.321	-124.23
235.591	-80.23
235.861	59.77
236.131	-65.23
236.402	-217.23
236.672	-111.23
236.942	42.77
237.212	37.77
237.483	-64.23
237.753	-11.23
238.023	169.77
238.293	12.77
238.563	-80.23
238.833	-109.23
239.103	65.77
239.374	-13.23
239.644	-144.23
239.914	-25.23
240.184	133.77
240.454	-12.23
240.724	-156.23
240.994	-46.23
241.264	19.77
241.534	57.77
241.804	-21.23
242.074	-102.23
242.344	-51.23
242.614	-72.23
242.884	-187.23
243.154	-129.23
243.424	45.77
243.694	64.77
243.964	-105.23
244.234	-77.23
244.503	124.77
244.773	-16.23
245.043	-228.23
245.313	-136.23
245.583	123.77
245.853	85.77
246.123	-182.23
246.392	-123.23
246.662	-17.23
246.932	-46.23
247.202	-193.23
247.471	-79.23
247.741	242.77
248.011	93.77
248.281	-156.23
248.55	-102.23
248.82	68.77
249.09	-7.23
249.359	-94.23
249.629	-84.23
249.899	30.77
250.168	51.77
250.438	-12.23
250.708	-108.23
250.977	56.77
251.247	46.77
251.516	-123.23
251.786	-64.23
252.055	118.77
252.325	1.77
252.595	-112.23
252.864	-57.23
253.134	40.77
253.403	-31.23
253.673	-173.23
253.942	-130.23
254.212	6.77
254.481	-22.23
254.75	-155.23
255.02	-83.23
255.289	85.77
255.559	-22.23
255.828	-136.23
256.097	-39.23
256.367	18.77
256.636	-75.23
256.906	-145.23
257.175	-21.23
257.444	238.77
257.714	49.77
257.983	-97.23
258.252	-62.23
258.521	6.77
258.791	26.77
259.06	-120.23
259.329	-49.23
259.598	48.77
259.868	-13.23
260.137	-137.23
260.406	-21.23
260.675	61.77
260.944	10.77
261.214	-149.23
261.483	-65.23
261.752	159.77
262.021	16.77
262.29	-169.23
262.559	-136.23
262.828	-4.23
263.097	-63.23
263.366	-225.23
263.635	-100.23
263.905	128.77
264.174	18.77
264.443	-216.23
264.712	-118.23
264.981	35.77
265.25	-61.23
265.519	-155.23
265.788	-143.23
266.057	25.77
266.325	56.77
266.594	-62.23
266.863	-123.23
267.132	16.77
267.401	-14.23
267.67	-204.23
267.939	-154.23
268.208	28.77
268.477	81.77
268.745	-106.23
269.014	-101.23
269.283	127.77
269.552	36.77
269.821	-125.23
270.089	-32.23
270.358	-19.23
270.627	-41.23
270.896	-145.23
271.164	-156.23
271.433	7.77
271.702	76.77
271.971	-148.23
272.239	-146.23
272.508	25.77
272.777	-25.23
273.045	-10.23
273.314	-31.23
273.583	95.77
273.851	-23.23
274.12	-166.23
274.388	-136.23
274.657	-11.23
274.926	-9.23
275.194	-164.23
275.463	-96.23
275.731	-0.23
276	150.77
276.268	354.77
276.537	-93.23
276.805	22.77
277.074	43.77
277.342	-184.23
277.611	-119.23
277.879	103.77
278.148	14.77
278.416	-147.23
278.684	-129.23
278.953	-40.23
279.221	-56.23
279.49	-204.23
279.758	-112.23
280.026	-19.23
280.295	-15.23
280.563	-134.23
280.831	727.77
281.1	1842.77
281.368	169.77
281.636	-109.23
281.904	-121.23
282.173	-18.23
282.441	-64.23
282.709	-112.23
282.977	22.77
283.246	44.77
283.514	-40.23
283.782	-72.23
284.05	11.77
284.318	48.77
284.587	-46.23
284.855	-160.23
285.123	-83.23
285.391	68.77
285.659	33.77
285.927	-159.23
286.195	-75.23
286.463	39.77
286.732	-28.23
287	-118.23
287.268	-59.23
287.536	25.77
287.804	-48.23
288.072	-152.23
288.34	-92.23
288.608	60.77
288.876	-39.23
289.144	-127.23
289.412	-33.23
289.68	34.77
289.948	-39.23
290.215	-139.23
290.483	-119.23
290.751	76.77
291.019	88.77
291.287	-178.23
291.555	-128.23
291.823	21.77
292.091	-18.23
292.358	-82.23
292.626	-30.23
292.894	62.77
293.162	34.77
293.43	-120.23
293.697	-93.23
293.965	43.77
294.233	-46.23
294.501	-183.23
294.768	-103.23
295.036	52.77
295.304	20.77
295.572	-155.23
295.839	-110.23
296.107	95.77
296.375	-10.23
296.642	-145.23
296.91	-130.23
297.178	37.77
297.445	148.77
297.713	76.77
297.98	-97.23
298.248	-41.23
298.516	-54.23
298.783	-135.23
299.051	-126.23
299.318	-1.23
299.586	-48.23
299.853	-113.23
300.121	-102.23
300.388	24.77
300.656	-36.23
300.923	-171.23
301.191	-68.23
301.458	32.77
301.726	-41.23
301.993	-177.23
302.26	-113.23
302.528	44.77
302.795	-38.23
303.063	-101.23
303.33	-53.23
303.597	44.77
303.865	11.77
304.132	-140.23
304.399	-131.23
304.667	-42.23
304.934	2.77
305.201	-122.23
305.469	-27.23
305.736	43.77
306.003	30.77
306.27	-53.23
306.538	-95.23
306.805	-18.23
307.072	-41.23
307.339	-93.23
307.606	-48.23
307.874	155.77
308.141	63.77
308.408	-145.23
308.675	-126.23
308.942	-55.23
309.209	-75.23
309.477	-142.23
309.744	-121.23
310.011	18.77
310.278	25.77
310.545	-57.23
310.812	-73.23
311.079	139.77
311.346	200.77
311.613	51.77
311.88	-44.23
312.147	-77.23
312.414	-66.23
312.681	-132.23
312.948	-44.23
313.215	104.77
313.482	73.77
313.749	-119.23
314.016	-217.23
314.283	-73.23
314.55	38.77
314.817	-111.23
315.083	-146.23
315.35	-94.23
315.617	-154.23
315.884	-162.23
316.151	55.77
316.418	172.77
316.684	-26.23
316.951	-183.23
317.218	-116.23
317.485	-17.23
317.752	-69.23
318.018	-134.23
318.285	-25.23
318.552	15.77
318.819	-56.23
319.085	-125.23
319.352	-67.23
319.619	38.77
319.885	-31.23
320.152	-205.23
320.419	-112.23
320.685	9.77
320.952	-40.23
321.219	-80.23
321.485	51.77
321.752	-12.23
322.019	-76.23
322.285	3.77
322.552	-23.23
322.818	111.77
323.085	-57.23
323.351	-148.23
323.618	-18.23
323.884	28.77
324.151	-88.23
324.417	-52.23
324.684	-93.23
324.95	-76.23
325.217	-156.23
325.483	-191.23
325.75	-44.23
326.016	-8.23
326.283	-44.23
326.549	-192.23
326.815	-89.23
327.082	95.77
327.348	18.77
327.615	-114.23
327.881	-37.23
328.147	102.77
328.414	105.77
328.68	-0.23
328.946	-50.23
329.212	14.77
329.479	-16.23
329.745	-125.23
330.011	-122.23
330.278	-2.23
330.544	-52.23
330.81	-34.23
331.076	-44.23
331.342	-47.23
331.609	-43.23
331.875	-107.23
332.141	-99.23
332.407	11.77
332.673	-27.23
332.94	-31.23
333.206	-58.23
333.472	29.77
333.738	63.77
334.004	-122.23
334.27	-39.23
334.536	-14.23
334.802	-61.23
335.068	-134.23
335.334	-27.23
335.6	10.77
335.866	-52.23
336.132	-198.23
336.398	-116.23
336.664	-50.23
336.93	-72.23
337.196	-107.23
337.462	-35.23
337.728	21.77
337.994	-53.23
338.26	-114.23
338.526	-67.23
338.792	-71.23
339.058	-63.23
339.324	-174.23
339.59	-38.23
339.856	38.77
340.121	-66.23
340.387	-134.23
340.653	66.77
340.919	121.77
341.185	38.77
341.45	-90.23
341.716	12.77
341.982	92.77
342.248	-74.23
342.514	-101.23
342.779	-22.23
343.045	-6.23
343.311	-33.23
343.576	-116.23
343.842	-58.23
344.108	99.77
344.374	5.77
344.639	-125.23
344.905	-102.23
345.171	39.77
345.436	-93.23
345.702	-124.23
345.967	17.77
346.233	56.77
346.499	16.77
346.764	-197.23
347.03	-99.23
347.295	-72.23
347.561	-21.23
347.826	-54.23
348.092	-128.23
348.357	-40.23
348.623	-46.23
348.888	-134.23
349.154	-111.23
349.419	21.77
349.685	-16.23
349.95	-100.23
350.216	-84.23
350.481	1.77
350.747	-80.23
351.012	-210.23
351.277	-136.23
351.543	-7.23
351.808	-56.23
352.074	-205.23
352.339	-155.23
352.604	-3.23
352.87	-28.23
353.135	-140.23
353.4	-109.23
353.666	-61.23
353.931	-65.23
354.196	-186.23
354.461	-168.23
354.727	-11.23
354.992	-38.23
355.257	-182.23
355.522	-73.23
355.788	-34.23
356.053	36.77
356.318	-115.23
356.583	-134.23
356.848	60.77
357.113	165.77
357.379	-123.23
357.644	-141.23
357.909	54.77
358.174	55.77
358.439	-190.23
358.704	-106.23
358.969	6.77
359.234	6.77
359.499	-181.23
359.765	-93.23
360.03	20.77
360.295	29.77
360.56	-158.23
360.825	-87.23
361.09	118.77
361.355	-72.23
361.62	-112.23
361.885	-86.23
362.15	-96.23
362.415	-80.23
362.679	-156.23
362.944	-4.23
363.209	6.77
363.474	25.77
363.739	-47.23
364.004	-136.23
364.269	-73.23
364.534	-30.23
364.799	-86.23
365.063	-73.23
365.328	24.77
365.593	6.77
365.858	-116.23
366.123	-136.23
366.387	12.77
366.652	-76.23
366.917	-185.23
367.182	-125.23
367.447	11.77
367.711	-29.23
367.976	-96.23
368.241	-24.23
368.505	32.77
368.77	-76.23
369.035	-81.23
369.299	-36.23
369.564	-21.23
369.829	-77.23
370.093	-116.23
370.358	-139.23
370.623	-24.23
370.887	-0.23
371.152	-164.23
371.416	-101.23
371.681	-55.23
371.946	-145.23
372.21	-196.23
372.475	-54.23
372.739	-20.23
373.004	-66.23
373.268	-109.23
373.533	-52.23
373.797	-3.23
374.062	-28.23
374.326	-161.23
374.591	-70.23
374.855	-4.23
375.12	-93.23
375.384	-248.23
375.648	-160.23
375.913	-21.23
376.177	2.77
376.442	-128.23
376.706	-131.23
376.97	2.77
377.235	-46.23
377.499	-94.23
377.763	-109.23
378.028	-91.23
378.292	-50.23
378.556	-148.23
378.821	-203.23
379.085	-107.23
379.349	-180.23
379.614	-260.23
379.878	-143.23
380.142	42.77
380.406	-42.23
380.671	-59.23
380.935	67.77
381.199	169.77
381.463	27.77
381.727	-31.23
381.991	-69.23
382.256	-2.23
382.52	-65.23
382.784	-54.23
383.048	61.77
383.312	-2.23
383.576	-38.23
383.84	-148.23
384.104	-105.23
384.369	-30.23
384.633	-131.23
384.897	-231.23
385.161	-115.23
385.425	11.77
385.689	-63.23
385.953	-136.23
386.217	-166.23
386.481	-61.23
386.745	-49.23
387.009	-86.23
387.273	-123.23
387.537	-96.23
387.801	-75.23
388.064	-138.23
388.328	-52.23
388.592	-3.23
388.856	-86.23
389.12	-147.23
389.384	-68.23
389.648	-39.23
389.912	20.77
390.176	27.77
390.439	103.77
390.703	-66.23
390.967	-94.23
391.231	-180.23
391.495	-132.23
391.758	-76.23
392.022	-50.23
392.286	-185.23
392.55	-145.23
392.813	-34.23
393.077	2.77
393.341	-80.23
393.605	-12.23
393.868	-47.23
394.132	-82.23
394.396	-105.23
394.659	8.77
394.923	-52.23
395.187	-94.23
395.45	-119.23
395.714	-56.23
395.978	-41.23
396.241	-38.23
396.505	-115.23
396.768	-58.23
397.032	-1.23
397.295	-29.23
397.559	-115.23
397.823	-130.23
398.086	2.77
398.35	-66.23
398.613	-183.23
398.877	-40.23
399.14	71.77
399.404	70.77
399.667	-35.23
399.931	-117.23
400.194	-25.23
400.457	-49.23
400.721	-94.23
400.984	6.77
401.248	-33.23
401.511	-66.23
401.775	-182.23
402.038	-137.23
402.301	60.77
402.565	-5.23
402.828	-201.23
403.091	-132.23
403.355	-19.23
403.618	-21.23
403.881	-20.23
404.145	-64.23
404.408	1.77
404.671	-48.23
404.934	-46.23
405.198	-15.23
405.461	-15.23
405.724	9.77
405.987	-29.23
406.251	5.77
406.514	102.77
406.777	-32.23
407.04	-121.23
407.303	-132.23
407.567	6.77
407.83	63.77
408.093	-154.23
408.356	-55.23
408.619	8.77
408.882	48.77
409.145	-41.23
409.408	-81.23
409.672	19.77
409.935	-33.23
410.198	-166.23
410.461	-92.23
410.724	68.77
410.987	-27.23
411.25	-156.23
411.513	-47.23
411.776	19.77
412.039	-101.23
412.302	-144.23
412.565	-123.23
412.828	-71.23
413.091	-67.23
413.354	-159.23
413.617	-131.23
413.879	-50.23
414.142	-43.23
414.405	-177.23
414.668	-100.23
414.931	23.77
415.194	8.77
415.457	-147.23
415.72	-68.23
415.983	-10.23
416.245	-20.23
416.508	-134.23
416.771	-159.23
417.034	-0.23
417.297	9.77
417.559	-39.23
417.822	-74.23
418.085	21.77
418.348	0.77
418.61	-154.23
418.873	-136.23
419.136	-100.23
419.399	-120.23
419.661	-92.23
419.924	-110.23
420.187	2.77
420.449	-48.23
420.712	-123.23
420.975	-167.23
421.237	-32.23
421.5	-32.23
421.762	-18.23
422.025	18.77
422.288	57.77
422.55	-130.23
422.813	-204.23
423.075	-116.23
423.338	-32.23
423.601	-23.23
423.863	-67.23
424.126	-61.23
424.388	36.77
424.651	-32.23
424.913	-93.23
425.176	-102.23
425.438	-61.23
425.701	21.77
425.963	-126.23
426.225	-171.23
426.488	-66.23
426.75	-74.23
427.013	-142.23
427.275	-112.23
427.538	-65.23
427.8	-81.23
428.062	-136.23
428.325	-68.23
428.587	15.77
428.849	-34.23
429.112	-113.23
429.374	-137.23
429.636	-85.23
429.899	3.77
430.161	-128.23
430.423	-97.23
430.686	10.77
430.948	-11.23
431.21	-143.23
431.472	-158.23
431.735	-70.23
431.997	-94.23
432.259	-69.23
432.521	-136.23
432.783	-33.23
433.046	-46.23
433.308	-154.23
433.57	-93.23
433.832	106.77
434.094	-85.23
434.356	-207.23
434.618	-100.23
434.881	-36.23
435.143	-83.23
435.405	-76.23
435.667	-46.23
435.929	-36.23
436.191	-73.23
436.453	-152.23
436.715	-84.23
436.977	-23.23
437.239	-67.23
437.501	-180.23
437.763	-148.23
438.025	-7.23
438.287	-40.23
438.549	-131.23
438.811	-86.23
439.073	-54.23
439.335	-109.23
439.597	-125.23
439.859	-49.23
440.121	57.77
440.383	-116.23
440.645	-132.23
440.907	-54.23
441.168	-33.23
441.43	-87.23
441.692	-177.23
441.954	-131.23
442.216	-65.23
442.478	-84.23
442.74	-194.23
443.001	-89.23
443.263	58.77
443.525	-2.23
443.787	-149.23
444.048	-106.23
444.31	-70.23
444.572	-80.23
444.834	-111.23
445.095	-107.23
445.357	27.77
445.619	-33.23
445.881	-237.23
446.142	-137.23
446.404	-71.23
446.666	-67.23
446.927	-102.23
447.189	30.77
447.451	22.77
447.712	-41.23
447.974	-232.23
448.235	-192.23
448.497	-59.23
448.759	-131.23
449.02	-186.23
449.282	-195.23
449.543	-28.23
449.805	26.77
450.066	-209.23
450.328	-84.23
450.59	123.77
450.851	-34.23
451.113	-64.23
451.374	-160.23
451.636	-23.23
451.897	10.77
452.158	-69.23
452.42	30.77
452.681	71.77
452.943	-122.23
453.204	-203.23
453.466	-181.23
453.727	-93.23
453.988	-61.23
454.25	-175.23
454.511	-193.23
454.773	-85.23
455.034	59.77
455.295	-147.23
455.557	-168.23
455.818	-78.23
456.079	-57.23
456.341	39.77
456.602	10.77
456.863	6.77
457.124	-62.23
457.386	-172.23
457.647	-172.23
457.908	-97.23
458.169	14.77
458.431	-182.23
458.692	-195.23
458.953	-71.23
459.214	-82.23
459.476	-106.23
459.737	-17.23
459.998	28.77
460.259	-73.23
460.52	-174.23
460.781	-131.23
461.043	25.77
461.304	-99.23
461.565	-208.23
461.826	-158.23
462.087	-36.23
462.348	-9.23
462.609	-127.23
462.87	-72.23
463.131	-117.23
463.392	-39.23
463.653	-109.23
463.914	-79.23
464.175	-33.23
464.436	-85.23
464.697	-152.23
464.958	-139.23
465.219	-31.23
465.48	-64.23
465.741	-81.23
466.002	-132.23
466.263	-71.23
466.524	-64.23
466.785	-172.23
467.046	-124.23
467.307	-37.23
467.568	-109.23
467.829	-111.23
468.089	-66.23
468.35	-29.23
468.611	-93.23
468.872	-170.23
469.133	-62.23
469.394	23.77
469.655	65.77
469.915	-124.23
470.176	-190.23
470.437	-135.23
470.698	-58.23
470.958	-138.23
471.219	-189.23
471.48	-111.23
471.741	-107.23
472.001	-173.23
472.262	-129.23
472.523	-4.23
472.784	22.77
473.044	-124.23
473.305	-72.23
473.566	29.77
473.826	-16.23
474.087	-136.23
474.348	-110.23
474.608	-50.23
474.869	-7.23
475.129	-122.23
475.39	-149.23
475.651	-55.23
475.911	-39.23
476.172	-180.23
476.432	-76.23
476.693	59.77
476.953	-16.23
477.214	-38.23
477.475	-25.23
477.735	-9.23
477.996	9.77
478.256	-188.23
478.517	-152.23
478.777	-62.23
479.038	3.77
479.298	-22.23
479.558	-106.23
479.819	61.77
480.079	54.77
480.34	-53.23
480.6	-117.23
480.861	-16.23
481.121	-64.23
481.381	-158.23
481.642	-84.23
481.902	-67.23
482.162	-125.23
482.423	-120.23
482.683	-32.23
482.943	-1.23
483.204	-99.23
483.464	-108.23
483.724	-91.23
483.985	-42.23
484.245	-9.23
484.505	-82.23
484.765	-17.23
485.026	47.77
485.286	18.77
485.546	-68.23
485.806	-8.23
486.067	-4.23
486.327	-115.23
486.587	-181.23
486.847	-168.23
487.107	-38.23
487.368	-34.23
487.628	-113.23
487.888	-104.23
488.148	-4.23
488.408	-87.23
488.668	-80.23
488.928	-40.23
489.188	-32.23
489.449	81.77
489.709	-82.23
489.969	-112.23
490.229	-19.23
490.489	-41.23
490.749	-130.23
491.009	-191.23
491.269	-112.23
491.529	-101.23
491.789	-175.23
492.049	-77.23
492.309	45.77
492.569	-93.23
492.829	-133.23
493.089	-123.23
493.349	27.77
493.609	-60.23
493.869	-153.23
494.129	-84.23
494.389	41.77
494.648	-80.23
494.908	-180.23
495.168	-106.23
495.428	27.77
495.688	-54.23
495.948	-204.23
496.208	-172.23
496.467	-105.23
496.727	-64.23
496.987	-91.23
497.247	-98.23
497.507	-7.23
497.767	11.77
498.026	-174.23
498.286	-74.23
498.546	110.77
498.806	-5.23
499.065	29.77
499.325	-42.23
499.585	-44.23
499.845	-58.23
500.104	-56.23
500.364	52.77
500.624	3.77
500.883	-83.23
501.143	-50.23
501.403	-5.23
501.662	74.77
501.922	-6.23
502.182	-157.23
502.441	-156.23
502.701	-93.23
502.96	14.77
503.22	-86.23
503.48	-109.23
503.739	-21.23
503.999	-72.23
504.258	-154.23
504.518	-89.23
504.777	10.77
505.037	-37.23
505.296	-111.23
505.556	-124.23
505.815	18.77
506.075	81.77
506.334	-33.23
506.594	-177.23
506.853	-102.23
507.113	-87.23
507.372	-223.23
507.632	-167.23
507.891	-52.23
508.151	-11.23
508.41	-181.23
508.669	-132.23
508.929	6.77
509.188	-49.23
509.447	-100.23
509.707	-138.23
509.966	-60.23
510.226	-48.23
510.485	-94.23
510.744	-68.23
511.004	4.77
511.263	-97.23
511.522	-167.23
511.781	-125.23
512.041	4.77
512.3	-70.23
512.559	-30.23
512.818	17.77
513.078	16.77
513.337	-30.23
513.596	-108.23
513.855	-120.23
514.115	13.77
514.374	-50.23
514.633	-167.23
514.892	-178.23
515.151	-28.23
515.41	20.77
515.67	-77.23
515.929	-130.23
516.188	-29.23
516.447	-68.23
516.706	-136.23
516.965	-117.23
517.224	-77.23
517.483	-70.23
517.743	-112.23
518.002	-71.23
518.261	13.77
518.52	-33.23
518.779	-139.23
519.038	-125.23
519.297	-62.23
519.556	-90.23
519.815	-186.23
520.074	-167.23
520.333	-54.23
520.592	-77.23
520.851	-168.23
521.11	-66.23
521.369	93.77
521.628	-84.23
521.887	-162.23
522.145	-85.23
522.404	-44.23
522.663	-60.23
522.922	-202.23
523.181	-184.23
523.44	-35.23
523.699	-1.23
523.958	-180.23
524.217	-166.23
524.475	-123.23
524.734	-146.23
524.993	-179.23
525.252	-111.23
525.511	-44.23
525.769	-92.23
526.028	-170.23
526.287	-100.23
526.546	-43.23
526.805	-73.23
527.063	-164.23
527.322	-186.23
527.581	-77.23
527.839	-75.23
528.098	-83.23
528.357	-65.23
528.616	-44.23
528.874	-70.23
529.133	-112.23
529.392	-79.23
529.65	-29.23
529.909	-59.23
530.168	-178.23
530.426	-144.23
530.685	3.77
530.943	-38.23
531.202	-166.23
531.461	-166.23
531.719	-23.23
531.978	-77.23
532.236	-159.23
532.495	-70.23
532.753	-4.23
533.012	-90.23
533.271	-150.23
533.529	-174.23
533.788	-87.23
534.046	-168.23
534.305	-206.23
534.563	-1.23
534.822	82.77
535.08	-21.23
535.338	-122.23
535.597	-80.23
535.855	-9.23
536.114	-82.23
536.372	-166.23
536.631	-91.23
536.889	15.77
537.147	-35.23
537.406	-232.23
537.664	-117.23
537.923	-40.23
538.181	-36.23
538.439	-173.23
538.698	-33.23
538.956	-51.23
539.214	-88.23
539.473	-130.23
539.731	-60.23
539.989	-19.23
540.248	-80.23
540.506	-140.23
540.764	-146.23
541.022	-45.23
541.281	-7.23
541.539	-125.23
541.797	-173.23
542.055	-49.23
542.314	50.77
542.572	5.77
542.83	-146.23
543.088	-45.23
543.346	-86.23
543.604	-183.23
543.863	-84.23
544.121	52.77
544.379	-41.23
544.637	-158.23
544.895	-34.23
545.153	76.77
545.411	-74.23
545.67	-241.23
545.928	-185.23
546.186	-44.23
546.444	-8.23
546.702	-101.23
546.96	-53.23
547.218	2.77
547.476	-68.23
547.734	-164.23
547.992	-87.23
548.25	1.77
548.508	-94.23
548.766	-111.23
549.024	-112.23
549.282	-97.23
549.54	-95.23
549.798	-96.23
550.056	-101.23
550.314	-9.23
550.572	-47.23
550.83	-190.23
551.088	-88.23
551.346	22.77
551.603	15.77
551.861	-154.23
552.119	-58.23
552.377	34.77
552.635	-72.23
552.893	-188.23
553.151	-180.23
553.409	-48.23
553.666	-50.23
553.924	-152.23
554.182	-160.23
554.44	-13.23
554.698	30.77
554.955	-114.23
555.213	-106.23
555.471	0.77
555.729	-65.23
555.986	-233.23
556.244	-119.23
556.502	82.77
556.76	-56.23
557.017	-122.23
557.275	-59.23
557.533	56.77
557.79	8.77
558.048	-194.23
558.306	-100.23
558.563	-7.23
558.821	-112.23
559.079	-153.23
559.336	-128.23
559.594	-61.23
559.852	-127.23
560.109	-184.23
560.367	-72.23
560.624	-27.23
560.882	-77.23
561.14	-107.23
561.397	11.77
561.655	-67.23
561.912	-54.23
562.17	-170.23
562.427	-102.23
562.685	-36.23
562.942	-33.23
563.2	-161.23
563.457	-91.23
563.715	-28.23
563.972	5.77
564.23	-192.23
564.487	-212.23
564.745	-59.23
565.002	-16.23
565.26	-136.23
565.517	-141.23
565.774	-57.23
566.032	-48.23
566.289	-115.23
566.547	-108.23
566.804	-11.23
567.061	-47.23
567.319	-164.23
567.576	-75.23
567.833	66.77
568.091	87.77
568.348	-92.23
568.605	-45.23
568.863	3.77
569.12	-10.23
569.377	-126.23
569.635	-136.23
569.892	-77.23
570.149	-104.23
570.406	-212.23
570.664	-151.23
570.921	-27.23
571.178	-114.23
571.435	-92.23
571.693	-90.23
571.95	-24.23
572.207	-90.23
572.464	-110.23
572.721	-29.23
572.979	69.77
573.236	-4.23
573.493	-119.23
573.75	-95.23
574.007	29.77
574.264	-60.23
574.521	-115.23
574.779	-99.23
575.036	-20.23
575.293	-76.23
575.55	-158.23
575.807	-128.23
576.064	-24.23
576.321	-57.23
576.578	-202.23
576.835	-163.23
577.092	57.77
577.349	-12.23
577.606	-230.23
577.863	-152.23
578.12	-29.23
578.377	-16.23
578.634	-237.23
578.891	-144.23
579.148	-27.23
579.405	-117.23
579.662	-207.23
579.919	-101.23
580.176	-66.23
580.433	-47.23
580.69	-118.23
580.947	-116.23
581.204	-37.23
581.461	-65.23
581.717	-172.23
581.974	-0.23
582.231	29.77
582.488	-83.23
582.745	-157.23
583.002	-139.23
583.259	2.77
583.515	-34.23
583.772	-198.23
584.029	-137.23
584.286	6.77
584.543	-157.23
584.799	-176.23
585.056	-86.23
585.313	-7.23
585.57	41.77
585.826	-119.23
586.083	-26.23
586.34	136.77
586.597	-72.23
586.853	-221.23
587.11	-182.23
587.367	16.77
587.623	94.77
587.88	-51.23
588.137	-129.23
588.393	-27.23
588.65	-87.23
588.907	-184.23
589.163	-121.23
589.42	-65.23
589.677	-37.23
589.933	-145.23
590.19	-55.23
590.446	62.77
590.703	39.77
590.96	-194.23
591.216	-210.23
591.473	-83.23
591.729	-79.23
591.986	-94.23
592.242	-53.23
592.499	132.77
592.755	-6.23
593.012	-203.23
593.268	-99.23
593.525	-51.23
593.781	-39.23
594.038	-131.23
594.294	-97.23
594.551	-61.23
594.807	-147.23
595.064	-159.23
595.32	-156.23
595.576	-47.23
595.833	22.77
596.089	-93.23
596.346	-42.23
596.602	0.77
596.858	61.77
597.115	-111.23
597.371	-36.23
597.628	-21.23
597.884	-81.23
598.14	-161.23
598.397	-33.23
598.653	68.77
598.909	-51.23
599.166	-178.23
599.422	-131.23
599.678	-7.23
599.934	-20.23
600.191	-156.23
600.447	-98.23
600.703	-52.23
600.959	-90.23
601.216	-222.23
601.472	-187.23
601.728	-82.23
601.984	-110.23
602.241	-201.23
602.497	-128.23
602.753	6.77
603.009	-76.23
603.265	-158.23
603.521	-21.23
603.778	72.77
604.034	-118.23
604.29	-211.23
604.546	-136.23
604.802	-50.23
605.058	-105.23
605.314	-211.23
605.571	-124.23
605.827	-80.23
606.083	-95.23
606.339	-198.23
606.595	-79.23
606.851	25.77
607.107	44.77
607.363	-150.23
607.619	-131.23
607.875	78.77
608.131	16.77
608.387	-228.23
608.643	-142.23
608.899	-61.23
609.155	-70.23
609.411	-82.23
609.667	-58.23
609.923	-47.23
610.179	-97.23
610.435	-276.23
610.691	-182.23
610.947	-10.23
611.203	-96.23
611.459	-154.23
611.714	-46.23
611.97	74.77
612.226	-0.23
612.482	-179.23
612.738	-80.23
612.994	111.77
613.25	-26.23
613.505	-159.23
613.761	-116.23
614.017	-36.23
614.273	-61.23
614.529	-117.23
614.785	-175.23
615.04	-53.23
615.296	-46.23
615.552	-129.23
615.808	-78.23
616.063	-0.23
616.319	-32.23
616.575	-159.23
616.831	-105.23
617.086	93.77
617.342	49.77
617.598	-67.23
617.854	-2.23
618.109	52.77
618.365	-114.23
618.621	-188.23
618.876	-61.23
619.132	37.77
619.388	-8.23
619.643	-158.23
619.899	-65.23
620.155	10.77
620.41	5.77
620.666	-131.23
620.921	-86.23
621.177	51.77
621.433	74.77
621.688	-47.23
621.944	-128.23
622.199	-59.23
622.455	-56.23
622.71	-171.23
622.966	-145.23
623.221	-102.23
623.477	-81.23
623.732	-79.23
623.988	-165.23
624.243	-37.23
624.499	-32.23
624.754	-178.23
625.01	-155.23
625.265	-40.23
625.521	48.77
625.776	-77.23
626.032	-58.23
626.287	-2.23
626.543	-68.23
626.798	-122.23
627.053	-82.23
627.309	-11.23
627.564	-81.23
627.82	-80.23
628.075	1.77
628.33	-40.23
628.586	-147.23
628.841	-250.23
629.096	-134.23
629.352	-32.23
629.607	-150.23
629.862	-163.23
630.118	-56.23
630.373	-97.23
630.628	-50.23
630.884	-170.23
631.139	-107.23
631.394	35.77
631.649	-30.23
631.905	-154.23
632.16	-63.23
632.415	122.77
632.67	-41.23
632.926	-174.23
633.181	-174.23
633.436	-50.23
633.691	-100.23
633.946	-223.23
634.202	-200.23
634.457	-37.23
634.712	-85.23
634.967	-169.23
635.222	-201.23
635.477	-112.23
635.733	-107.23
635.988	-208.23
636.243	-173.23
636.498	-11.23
636.753	-44.23
637.008	-177.23
637.263	-92.23
637.518	-35.23
637.773	-55.23
638.028	-115.23
638.283	-96.23
638.539	22.77
638.794	-1.23
639.049	-151.23
639.304	-161.23
639.559	-87.23
639.814	-109.23
640.069	-157.23
640.324	-127.23
640.579	-27.23
640.834	-42.23
641.089	-149.23
641.344	-71.23
641.598	105.77
641.853	7.77
642.108	-148.23
642.363	-202.23
642.618	-23.23
642.873	-91.23
643.128	-198.23
643.383	-136.23
643.638	-24.23
643.893	29.77
644.148	-50.23
644.402	-130.23
644.657	-3.23
644.912	-82.23
645.167	-100.23
645.422	-27.23
645.677	-34.23
645.931	-1.23
646.186	-9.23
646.441	-65.23
646.696	-96.23
646.951	-82.23
647.205	-104.23
647.46	-86.23
647.715	-78.23
647.97	67.77
648.224	177.77
648.479	-20.23
648.734	70.77
648.989	27.77
649.243	-66.23
649.498	-99.23
649.753	-53.23
650.007	-21.23
650.262	-104.23
650.517	-107.23
650.771	-51.23
651.026	-114.23
651.281	-217.23
651.535	-87.23
651.79	-53.23
652.045	-79.23
652.299	-149.23
652.554	-131.23
652.809	-41.23
653.063	102.77
653.318	14.77
653.572	-111.23
653.827	35.77
654.081	-32.23
654.336	-189.23
654.591	-170.23
654.845	-41.23
655.1	-92.23
655.354	-134.23
655.609	-77.23
655.863	18.77
656.118	-1.23
656.372	-139.23
656.627	-120.23
656.881	-7.23
657.136	-73.23
657.39	-179.23
657.645	-48.23
657.899	83.77
658.153	-22.23
658.408	-141.23
658.662	-85.23
658.917	-51.23
659.171	-130.23
659.426	-191.23
659.68	-115.23
659.934	-23.23
660.189	-62.23
660.443	-148.23
660.697	1.77
660.952	73.77
661.206	-62.23
661.46	-208.23
661.715	-123.23
661.969	-15.23
662.223	-69.23
662.478	-138.23
662.732	-82.23
662.986	-50.23
663.241	-51.23
663.495	-176.23
663.749	-113.23
664.003	13.77
664.258	-57.23
664.512	-127.23
664.766	-77.23
665.02	-18.23
665.275	9.77
665.529	-158.23
665.783	-144.23
666.037	-51.23
666.291	-62.23
666.546	-117.23
666.8	-81.23
667.054	-97.23
667.308	-90.23
667.562	-233.23
667.816	-148.23
668.071	-41.23
668.325	-144.23
668.579	-145.23
668.833	-81.23
669.087	29.77
669.341	-55.23
669.595	-187.23
669.849	-126.23
670.103	-72.23
670.357	-77.23
670.612	-109.23
670.866	-117.23
671.12	-43.23
671.374	-64.23
671.628	-82.23
671.882	-135.23
672.136	-59.23
672.39	-72.23
672.644	-218.23
672.898	-72.23
673.152	88.77
673.406	13.77
673.66	-97.23
673.914	-31.23
674.168	32.77
674.422	-52.23
674.675	-148.23
674.929	-69.23
675.183	39.77
675.437	-27.23
675.691	-95.23
675.945	-41.23
676.199	67.77
676.453	-41.23
676.707	-170.23
676.961	-170.23
677.214	-72.23
677.468	-50.23
677.722	-54.23
677.976	-73.23
678.23	-41.23
678.484	-22.23
678.737	-159.23
678.991	-124.23
679.245	-38.23
679.499	-76.23
679.753	-158.23
680.006	-73.23
680.26	21.77
680.514	35.77
680.768	-126.23
681.021	-52.23
681.275	-33.23
681.529	-34.23
681.783	-105.23
682.036	-109.23
682.29	-114.23
682.544	-73.23
682.797	-100.23
683.051	-149.23
683.305	-95.23
683.559	-69.23
683.812	-49.23
684.066	-72.23
684.32	-6.23
684.573	-60.23
684.827	-58.23
685.08	-17.23
685.334	59.77
685.588	-26.23
685.841	-176.23
686.095	-16.23
686.348	-10.23
686.602	-23.23
686.856	-49.23
687.109	-112.23
687.363	-67.23
687.616	-102.23
687.87	-232.23
688.123	-152.23
688.377	-66.23
688.63	-34.23
688.884	-24.23
689.137	86.77
689.391	70.77
689.644	-93.23
689.898	-185.23
690.151	-153.23
690.405	-43.23
690.658	-52.23
690.912	-101.23
691.165	-117.23
691.419	-71.23
691.672	-18.23
691.926	-86.23
692.179	-88.23
692.432	-27.23
692.686	-70.23
692.939	-189.23
693.193	-148.23
693.446	25.77
693.699	-8.23
693.953	-26.23
694.206	-62.23
694.459	21.77
694.713	43.77
694.966	-119.23
695.219	-118.23
695.473	-36.23
695.726	-130.23
695.979	-199.23
696.233	-93.23
696.486	-11.23
696.739	-37.23
696.992	-157.23
697.246	-45.23
697.499	24.77
697.752	-148.23
698.006	-170.23
698.259	-57.23
698.512	-57.23
698.765	-112.23
699.018	-139.23
699.272	-44.23
699.525	-81.23
699.778	-138.23
700.031	-173.23
700.284	-146.23
700.538	-23.23
700.791	-38.23
701.044	-117.23
701.297	-92.23
701.55	-60.23
701.803	-92.23
702.056	-199.23
702.31	-115.23
702.563	-8.23
702.816	-100.23
703.069	-242.23
703.322	-168.23
703.575	-46.23
703.828	8.77
704.081	-120.23
704.334	-124.23
704.587	-71.23
704.84	-119.23
705.093	-133.23
705.346	-4.23
705.599	-24.23
705.853	-21.23
706.106	14.77
706.359	261.77
706.612	-17.23
706.865	8.77
707.118	-172.23
707.37	-101.23
707.623	12.77
707.876	-19.23
708.129	-54.23
708.382	32.77
708.635	105.77
708.888	-62.23
709.141	-181.23
709.394	-64.23
709.647	46.77
709.9	-88.23
710.153	-225.23
710.406	-96.23
710.658	16.77
710.911	-67.23
711.164	-170.23
711.417	-134.23
711.67	-90.23
711.923	-55.23
712.176	-175.23
712.428	-123.23
712.681	-58.23
712.934	-28.23
713.187	-126.23
713.44	-178.23
713.692	-29.23
713.945	-87.23
714.198	-190.23
714.451	-204.23
714.704	-52.23
714.956	-10.23
715.209	5.77
715.462	-46.23
715.715	-13.23
715.967	-10.23
716.22	-166.23
716.473	-150.23
716.725	26.77
716.978	-60.23
717.231	-46.23
717.484	-10.23
717.736	-84.23
717.989	-150.23
718.242	-228.23
718.494	-120.23
718.747	11.77
718.999	-61.23
719.252	-66.23
719.505	-57.23
719.757	-32.23
720.01	-57.23
720.263	-115.23
720.515	-105.23
720.768	-2.23
721.02	-36.23
721.273	-158.23
721.525	-186.23
721.778	-61.23
722.031	11.77
722.283	-154.23
722.536	-140.23
722.788	-53.23
723.041	-94.23
723.293	-160.23
723.546	-173.23
723.798	-53.23
724.051	-5.23
724.303	-51.23
724.556	-37.23
724.808	95.77
725.061	14.77
725.313	-104.23
725.566	-99.23
725.818	-53.23
726.071	-84.23
726.323	-202.23
726.575	-121.23
726.828	26.77
727.08	29.77
727.333	-157.23
727.585	-123.23
727.837	-55.23
728.09	-39.23
728.342	-185.23
728.595	-86.23
728.847	79.77
729.099	-167.23
729.352	-174.23
729.604	-154.23
729.856	-65.23
730.109	-86.23
730.361	-150.23
730.613	-59.23
730.866	32.77
731.118	-112.23
731.37	-196.23
731.622	-158.23
731.875	-76.23
732.127	-20.23
732.379	-74.23
732.631	-9.23
732.884	-16.23
733.136	-98.23
733.388	-181.23
733.64	-107.23
733.893	19.77
734.145	-41.23
734.397	-181.23
734.649	-163.23
734.901	-51.23
735.154	-133.23
735.406	-220.23
735.658	-153.23
735.91	-7.23
736.162	-56.23
736.414	-174.23
736.667	-83.23
736.919	-45.23
737.171	-140.23
737.423	-176.23
737.675	-114.23
737.927	15.77
738.179	-55.23
738.431	-92.23
738.684	-154.23
738.936	-85.23
739.188	-10.23
739.44	-203.23
739.692	-198.23
739.944	-154.23
740.196	-122.23
740.448	-176.23
740.7	-183.23
740.952	-121.23
741.204	-105.23
741.456	-181.23
741.708	-118.23
741.96	-107.23
742.212	-30.23
742.464	-38.23
742.716	-178.23
742.968	-83.23
743.22	-146.23
743.472	-198.23
743.724	-122.23
743.976	9.77
744.228	2.77
744.48	-236.23
744.732	-197.23
744.983	-36.23
745.235	-60.23
745.487	-120.23
745.739	-86.23
745.991	-114.23
746.243	-26.23
746.495	-166.23
746.747	-172.23
746.999	-74.23
747.25	-67.23
747.502	-114.23
747.754	-13.23
748.006	-83.23
748.258	23.77
748.51	31.77
748.761	-128.23
749.013	-69.23
749.265	13.77
749.517	-5.23
749.768	32.77
750.02	55.77
750.272	1.77
750.524	-171.23
750.776	-215.23
751.027	-23.23
751.279	31.77
751.531	-181.23
751.782	-98.23
752.034	8.77
752.286	-95.23
752.538	-217.23
752.789	-111.23
753.041	-19.23
753.293	-46.23
753.544	-126.23
753.796	-113.23
754.048	-12.23
754.299	-32.23
754.551	-95.23
754.803	-137.23
755.054	-100.23
755.306	-36.23
755.558	-144.23
755.809	-133.23
756.061	27.77
756.312	-79.23
756.564	-112.23
756.816	-85.23
757.067	-72.23
757.319	-92.23
757.57	-131.23
757.822	-44.23
758.073	22.77
758.325	-38.23
758.577	-162.23
758.828	-143.23
759.08	65.77
759.331	68.77
759.583	-123.23
759.834	-30.23
760.086	-70.23
760.337	-86.23
760.589	-138.23
760.84	-125.23
761.092	-39.23
761.343	-68.23
761.595	-212.23
761.846	-78.23
762.097	-39.23
762.349	-89.23
762.6	-235.23
762.852	-93.23
763.103	54.77
763.355	-93.23
763.606	-184.23
763.857	-27.23
764.109	50.77
764.36	-40.23
764.612	-120.23
764.863	-24.23
765.114	3.77
765.366	-130.23
765.617	-221.23
765.868	-160.23
766.12	8.77
766.371	3.77
766.622	-198.23
766.874	-127.23
767.125	25.77
767.376	-89.23
767.628	-166.23
767.879	-105.23
768.13	-13.23
768.381	-14.23
768.633	-86.23
768.884	-91.23
769.135	-14.23
769.386	-36.23
769.638	-105.23
769.889	-82.23
770.14	-33.23
770.391	-131.23
770.643	-181.23
770.894	-182.23
771.145	-69.23
771.396	-127.23
771.647	-220.23
771.899	-100.23
772.15	-6.23
772.401	-48.23
772.652	-190.23
772.903	-153.23
773.154	182.77
773.406	414.77
773.657	-117.23
773.908	-129.23
774.159	-30.23
774.41	-25.23
774.661	-158.23
774.912	-104.23
775.163	59.77
775.414	46.77
775.666	-180.23
775.917	-170.23
776.168	-105.23
776.419	-89.23
776.67	-179.23
776.921	-181.23
777.172	-84.23
777.423	-60.23
777.674	-37.23
777.925	-51.23
778.176	-117.23
778.427	-105.23
778.678	-177.23
778.929	-149.23
779.18	-63.23
779.431	-140.23
779.682	-140.23
779.933	-93.23
780.184	-50.23
780.435	-86.23
780.686	-131.23
780.937	-63.23
781.188	-14.23
781.439	67.77
781.69	-4.23
781.941	-68.23
782.191	-58.23
782.442	-72.23
782.693	-168.23
782.944	-187.23
783.195	-83.23
783.446	-54.23
783.697	-44.23
783.948	-142.23
784.199	-105.23
784.449	-138.23
784.7	-126.23
784.951	-102.23
785.202	30.77
785.453	-3.23
785.704	-183.23
785.954	-197.23
786.205	-117.23
786.456	-159.23
786.707	-241.23
786.958	-205.23
787.208	-93.23
787.459	-134.23
787.71	-110.23
787.961	-131.23
788.211	-70.23
788.462	-69.23
788.713	-136.23
788.964	-141.23
789.214	-51.23
789.465	-32.23
789.716	-93.23
789.967	-100.23
790.217	-112.23
790.468	-134.23
790.719	-200.23
790.969	-163.23
791.22	-111.23
791.471	-41.23
791.721	-24.23
791.972	-113.23
792.223	-39.23
792.473	-104.23
792.724	-144.23
792.975	-167.23
793.225	-86.23
793.476	-103.23
793.726	-172.23
793.977	-72.23
794.228	36.77
794.478	-71.23
794.729	-167.23
794.979	-61.23
795.23	-33.23
795.481	-85.23
795.731	-183.23
795.982	-116.23
796.232	-119.23
796.483	-159.23
796.733	-190.23
796.984	-133.23
797.234	-80.23
797.485	-59.23
797.735	-201.23
797.986	-165.23
798.236	-18.23
798.487	-98.23
798.737	-102.23
798.988	-9.23
799.238	41.77
799.489	-90.23
799.739	-176.23
799.99	-87.23
800.24	7.77
800.491	40.77
800.741	-101.23
800.991	-160.23
801.242	-110.23
801.492	-81.23
801.743	-142.23
801.993	-11.23
802.244	106.77
802.494	-68.23
802.744	-93.23
802.995	-60.23
803.245	-46.23
803.495	-72.23
803.746	-133.23
803.996	-65.23
804.246	-73.23
804.497	-50.23
804.747	-171.23
804.997	-110.23
805.248	-103.23
805.498	-136.23
805.748	-117.23
805.999	-199.23
806.249	-118.23
806.499	-124.23
806.75	-228.23
807	-206.23
807.25	-92.23
807.5	-129.23
807.751	-119.23
808.001	-47.23
808.251	-41.23
808.501	22.77
808.752	4.77
809.002	-52.23
809.252	-64.23
809.502	-117.23
809.752	-136.23
810.003	-183.23
810.253	-104.23
810.503	-65.23
810.753	-54.23
811.003	-34.23
811.254	-1.23
811.504	-69.23
811.754	-101.23
812.004	-87.23
812.254	144.77
812.504	-31.23
812.754	-129.23
813.005	-56.23
813.255	22.77
813.505	-53.23
813.755	-149.23
814.005	-76.23
814.255	-58.23
814.505	-102.23
814.755	-210.23
815.005	-172.23
815.255	-41.23
815.505	-86.23
815.756	-53.23
816.006	-68.23
816.256	-127.23
816.506	-166.23
816.756	-225.23
817.006	-177.23
817.256	-64.23
817.506	-72.23
817.756	-119.23
818.006	-99.23
818.256	-65.23
818.506	-83.23
818.756	-199.23
819.006	-148.23
819.256	-65.23
819.506	-101.23
819.756	-165.23
820.006	-85.23
820.255	-34.23
820.505	-58.23
820.755	-177.23
821.005	-133.23
821.255	-9.23
821.505	-63.23
821.755	-139.23
822.005	-54.23
822.255	25.77
822.505	-74.23
822.755	-71.23
823.004	-188.23
823.254	-162.23
823.504	-68.23
823.754	-61.23
824.004	-151.23
824.254	-59.23
824.504	-60.23
824.753	-34.23
825.003	-32.23
825.253	15.77
825.503	-92.23
825.753	-152.23
826.002	-63.23
826.252	139.77
826.502	-50.23
826.752	-138.23
827.002	-116.23
827.251	-16.23
827.501	-84.23
827.751	-159.23
828.001	-121.23
828.25	5.77
828.5	-153.23
828.75	-184.23
829	-78.23
829.249	31.77
829.499	-127.23
829.749	-150.23
829.998	-78.23
830.248	-49.23
830.498	-161.23
830.748	-146.23
830.997	-87.23
831.247	-8.23
831.497	-19.23
831.746	-93.23
831.996	-15.23
832.246	88.77
832.495	101.77
832.745	-150.23
832.994	-147.23
833.244	8.77
833.494	-100.23
833.743	-186.23
833.993	-104.23
834.243	-42.23
834.492	-72.23
834.742	-101.23
834.991	-94.23
835.241	77.77
835.49	-90.23
835.74	-206.23
835.99	-118.23
836.239	-21.23
836.489	3.77
836.738	-98.23
836.988	-208.23
837.237	-88.23
837.487	18.77
837.736	-95.23
837.986	-130.23
838.235	-72.23
838.485	-114.23
838.734	-142.23
838.984	-54.23
839.233	-81.23
839.483	-156.23
839.732	-185.23
839.982	-97.23
840.231	-30.23
840.481	-33.23
840.73	-152.23
840.979	-86.23
841.229	-69.23
841.478	-76.23
841.728	-200.23
841.977	-218.23
842.227	-151.23
842.476	-180.23
842.725	-225.23
842.975	-164.23
843.224	-46.23
843.474	-0.23
843.723	-109.23
843.972	-120.23
844.222	-68.23
844.471	-10.23
844.72	-122.23
844.97	-125.23
845.219	-38.23
845.468	-31.23
845.718	-100.23
845.967	-92.23
846.216	-39.23
846.466	14.77
846.715	-108.23
846.964	-96.23
847.214	-97.23
847.463	-145.23
847.712	-113.23
847.961	-143.23
848.211	-73.23
848.46	-74.23
848.709	-120.23
848.958	-159.23
849.208	-85.23
849.457	-88.23
849.706	-69.23
849.955	-98.23
850.205	-123.23
850.454	12.77
850.703	42.77
850.952	-21.23
851.201	6.77
851.451	-60.23
851.7	-49.23
851.949	-164.23
852.198	-72.23
852.447	-86.23
852.696	-173.23
852.946	-125.23
853.195	-17.23
853.444	-20.23
853.693	-196.23
853.942	-188.23
854.191	-92.23
854.44	-73.23
854.689	-121.23
854.939	-148.23
855.188	-162.23
855.437	-137.23
855.686	-152.23
855.935	-110.23
856.184	-39.23
856.433	-1.23
856.682	-80.23
856.931	-77.23
857.18	-48.23
857.429	-120.23
857.678	-173.23
857.927	-107.23
858.176	-77.23
858.425	-131.23
858.674	-221.23
858.924	-112.23
859.173	-80.23
859.422	-53.23
859.671	-189.23
859.92	-135.23
860.169	-76.23
860.417	-28.23
860.666	-101.23
860.915	-138.23
861.164	-102.23
861.413	-148.23
861.662	-200.23
861.911	-161.23
862.16	-18.23
862.409	-50.23
862.658	-198.23
862.907	-159.23
863.156	-50.23
863.405	-61.23
863.654	-157.23
863.903	-201.23
864.151	-110.23
864.4	-82.23
864.649	-121.23
864.898	-80.23
865.147	-47.23
865.396	-9.23
865.645	-164.23
865.894	-116.23
866.142	27.77
866.391	-73.23
866.64	-179.23
866.889	-94.23
867.138	72.77
867.387	-34.23
867.635	-156.23
867.884	-94.23
868.133	18.77
868.382	-68.23
868.631	-195.23
868.879	-182.23
869.128	-72.23
869.377	-77.23
869.626	-135.23
869.874	-122.23
870.123	-22.23
870.372	-77.23
870.621	-190.23
870.869	-150.23
871.118	-40.23
871.367	-58.23
871.616	-172.23
871.864	-66.23
872.113	-28.23
872.362	-75.23
872.61	-120.23
872.859	-57.23
873.108	-7.23
873.357	-99.23
873.605	-204.23
873.854	-170.23
874.103	-126.23
874.351	-119.23
874.6	-147.23
874.848	-106.23
875.097	-48.23
875.346	-38.23
875.594	-146.23
875.843	-46.23
876.092	100.77
876.34	-27.23
876.589	-145.23
876.837	-234.23
877.086	-140.23
877.335	-56.23
877.583	-108.23
877.832	-74.23
878.08	42.77
878.329	-53.23
878.578	-128.23
878.826	-105.23
879.075	-39.23
879.323	-35.23
879.572	-117.23
879.82	15.77
880.069	-30.23
880.317	-25.23
880.566	-146.23
880.814	-46.23
881.063	65.77
881.311	-28.23
881.56	5.77
881.808	-90.23
882.057	-23.23
882.305	-55.23
882.554	-48.23
882.802	-148.23
883.051	-97.23
883.299	-71.23
883.548	-111.23
883.796	-19.23
884.045	-22.23
884.293	-100.23
884.541	-221.23
884.79	-222.23
885.038	-118.23
885.287	-100.23
885.535	-74.23
885.783	-51.23
886.032	-119.23
886.28	-145.23
886.529	-166.23
886.777	-102.23
887.025	33.77
887.274	-84.23
887.522	-150.23
887.77	-121.23
888.019	-96.23
888.267	-134.23
888.516	-201.23
888.764	-160.23
889.012	-80.23
889.261	-87.23
889.509	-165.23
889.757	-157.23
890.005	-118.23
890.254	-164.23
890.502	-138.23
890.75	78.77
890.999	66.77
891.247	-20.23
891.495	-69.23
891.743	-94.23
891.992	53.77
892.24	-49.23
892.488	-162.23
892.737	-152.23
892.985	-62.23
893.233	-73.23
893.481	-121.23
893.729	-136.23
893.978	35.77
894.226	43.77
894.474	-116.23
894.722	-122.23
894.97	-83.23
895.219	-106.23
895.467	-87.23
895.715	-45.23
895.963	-59.23
896.211	-122.23
896.46	-202.23
896.708	-87.23
896.956	2.77
897.204	65.77
897.452	-29.23
897.7	-105.23
897.948	-36.23
898.197	-88.23
898.445	-134.23
898.693	-101.23
898.941	-33.23
899.189	-51.23
899.437	-112.23
899.685	-22.23
899.933	-66.23
900.181	-64.23
900.43	-141.23
900.678	-123.23
900.926	-59.23
901.174	-92.23
901.422	-131.23
901.67	-111.23
901.918	-32.23
902.166	-69.23
902.414	-205.23
902.662	-156.23
902.91	-42.23
903.158	-70.23
903.406	-128.23
903.654	-115.23
903.902	-56.23
904.15	-82.23
904.398	-201.23
904.646	-100.23
904.894	-24.23
905.142	-19.23
905.39	-74.23
905.638	-145.23
905.886	-102.23
906.134	-108.23
906.382	-114.23
906.63	-128.23
906.878	-59.23
907.126	-77.23
907.374	-142.23
907.622	-121.23
907.869	-17.23
908.117	-33.23
908.365	-102.23
908.613	-126.23
908.861	-119.23
909.109	-162.23
909.357	-192.23
909.605	-109.23
909.853	-25.23
910.1	-89.23
910.348	-254.23
910.596	-200.23
910.844	-7.23
911.092	23.77
911.34	-100.23
911.588	-82.23
911.835	-33.23
912.083	-61.23
912.331	-77.23
912.579	-48.23
912.827	137.77
913.075	0.77
913.322	-143.23
913.57	-124.23
913.818	12.77
914.066	-76.23
914.313	-134.23
914.561	-44.23
914.809	-53.23
915.057	-102.23
915.305	-102.23
915.552	-115.23
915.8	-3.23
916.048	-103.23
916.296	-179.23
916.543	-60.23
916.791	39.77
917.039	-42.23
917.286	-160.23
917.534	-130.23
917.782	-7.23
918.03	-83.23
918.277	-199.23
918.525	-194.23
918.773	-82.23
919.02	-92.23
919.268	-160.23
919.516	-126.23
919.763	-117.23
920.011	-101.23
920.259	-204.23
920.506	-110.23
920.754	-20.23
921.002	-23.23
921.249	-69.23
921.497	-91.23
921.745	-53.23
921.992	-44.23
922.24	-188.23
922.487	-70.23
922.735	98.77
922.983	2.77
923.23	-87.23
923.478	-130.23
923.725	-49.23
923.973	-36.23
924.221	-67.23
924.468	-24.23
924.716	-28.23
924.963	-60.23
925.211	-118.23
925.458	-55.23
925.706	47.77
925.953	75.77
926.201	-98.23
926.448	-122.23
926.696	-37.23
926.944	-68.23
927.191	-118.23
927.439	-108.23
927.686	-83.23
927.934	-53.23
928.181	-155.23
928.429	-158.23
928.676	-89.23
928.923	-155.23
929.171	-194.23
929.418	-43.23
929.666	15.77
929.913	5.77
930.161	-189.23
930.408	-148.23
930.656	-67.23
930.903	-33.23
931.151	-150.23
931.398	-97.23
931.645	15.77
931.893	-84.23
932.14	-104.23
932.388	-74.23
932.635	49.77
932.882	84.77
933.13	-32.23
933.377	-107.23
933.625	-5.23
933.872	-94.23
934.119	-162.23
934.367	-101.23
934.614	-99.23
934.861	-110.23
935.109	-109.23
935.356	-56.23
935.603	-12.23
935.851	-81.23
936.098	-146.23
936.345	-34.23
936.593	4.77
936.84	-64.23
937.087	-192.23
937.335	-132.23
937.582	-60.23
937.829	-41.23
938.077	-74.23
938.324	-92.23
938.571	-22.23
938.818	-101.23
939.066	-142.23
939.313	-159.23
939.56	-34.23
939.807	-29.23
940.055	-157.23
940.302	-117.23
940.549	52.77
940.796	-34.23
941.044	-93.23
941.291	-76.23
941.538	81.77
941.785	-58.23
942.033	-113.23
942.28	-37.23
942.527	1.77
942.774	-21.23
943.021	-173.23
943.269	-136.23
943.516	-10.23
943.763	-22.23
944.01	-88.23
944.257	-23.23
944.504	27.77
944.752	-16.23
944.999	-48.23
945.246	-134.23
945.493	-47.23
945.74	-49.23
945.987	-136.23
946.234	-67.23
946.482	17.77
946.729	-84.23
946.976	-147.23
947.223	-125.23
947.47	45.77
947.717	1.77
947.964	-1.23
948.211	-38.23
948.458	2.77
948.705	-50.23
948.952	-139.23
949.2	-60.23
949.447	74.77
949.694	52.77
949.941	-116.23
950.188	-131.23
950.435	-106.23
950.682	-62.23
950.929	-186.23
951.176	-135.23
951.423	26.77
951.67	14.77
951.917	-25.23
952.164	-31.23
952.411	18.77
952.658	65.77
952.905	-84.23
953.152	-128.23
953.399	-25.23
953.646	-25.23
953.893	-146.23
954.14	-104.23
954.387	-48.23
954.634	-64.23
954.881	-113.23
955.128	-39.23
955.375	-58.23
955.622	-59.23
955.869	-74.23
956.115	-98.23
956.362	-9.23
956.609	-29.23
956.856	-118.23
957.103	-120.23
957.35	-9.23
957.597	-2.23
957.844	-98.23
958.091	-80.23
958.338	10.77
958.585	-57.23
958.831	-222.23
959.078	-148.23
959.325	0.77
959.572	-86.23
959.819	-166.23
960.066	-211.23
960.313	-70.23
960.559	-79.23
960.806	-214.23
961.053	-162.23
961.3	6.77
961.547	35.77
961.794	-180.23
962.04	-16.23
962.287	-4.23
962.534	-126.23
962.781	-137.23
963.028	-81.23
963.274	40.77
963.521	-64.23
963.768	-141.23
964.015	-82.23
964.262	77.77
964.508	-76.23
964.755	-171.23
965.002	-157.23
965.249	-94.23
965.495	-154.23
965.742	-181.23
965.989	-151.23
966.236	-40.23
966.482	-100.23
966.729	-157.23
966.976	-166.23
967.222	-106.23
967.469	-102.23
967.716	-172.23
967.963	-159.23
968.209	-81.23
968.456	-106.23
968.703	-211.23
968.949	-106.23
969.196	66.77
969.443	63.77
969.689	-161.23
969.936	-197.23
970.183	-88.23
970.429	-133.23
970.676	-179.23
970.923	-122.23
971.169	-57.23
971.416	-118.23
971.663	-156.23
971.909	-106.23
972.156	-36.23
972.402	-53.23
972.649	-115.23
972.896	-69.23
973.142	-53.23
973.389	-35.23
973.635	-138.23
973.882	-18.23
974.129	63.77
974.375	-75.23
974.622	-158.23
974.868	-150.23
975.115	-84.23
975.361	-123.23
975.608	-138.23
975.855	-19.23
976.101	-1.23
976.348	-73.23
976.594	-138.23
976.841	-78.23
977.087	-73.23
977.334	-39.23
977.58	-176.23
977.827	-170.23
978.073	-23.23
978.32	-45.23
978.566	-180.23
978.813	-106.23
979.059	-57.23
979.306	-84.23
979.552	-187.23
979.799	-96.23
980.045	-95.23
980.292	-110.23
980.538	-179.23
980.785	-161.23
981.031	-115.23
981.278	-128.23
981.524	-184.23
981.771	-40.23
982.017	90.77
982.263	-2.23
982.51	-147.23
982.756	-96.23
983.003	-10.23
983.249	-52.23
983.495	-149.23
983.742	-150.23
983.988	-88.23
984.235	-69.23
984.481	-168.23
984.727	-147.23
984.974	-26.23
985.22	-27.23
985.467	-98.23
985.713	-121.23
985.959	-4.23
986.206	-28.23
986.452	-115.23
986.698	-74.23
986.945	-50.23
987.191	-4.23
987.437	4.77
987.684	-30.23
987.93	118.77
988.176	27.77
988.423	-160.23
988.669	-86.23
988.915	63.77
989.162	-81.23
989.408	-170.23
989.654	-102.23
989.901	-72.23
990.147	-78.23
990.393	-73.23
990.639	-12.23
990.886	4.77
991.132	69.77
991.378	2.77
991.625	119.77
991.871	80.77
992.117	-9.23
992.363	-66.23
992.61	-24.23
992.856	90.77
993.102	-57.23
993.348	-132.23
993.594	-98.23
993.841	-49.23
994.087	69.77
994.333	-74.23
994.579	-88.23
994.826	-36.23
995.072	-34.23
995.318	-212.23
995.564	-152.23
995.81	-33.23
996.057	-76.23
996.303	-187.23
996.549	-162.23
996.795	-62.23
997.041	-81.23
997.287	-114.23
997.534	-110.23
997.78	-62.23
998.026	-39.23
998.272	-160.23
998.518	-162.23
998.764	-24.23
999.01	0.77
999.256	-99.23
999.503	-143.23
999.749	-122.23
999.995	-158.23
1000.241	-184.23
1000.487	-97.23
1000.733	-42.23
1000.979	-96.23
1001.225	-122.23
1001.471	-51.23
1001.718	-15.23
1001.964	35.77
1002.21	-145.23
1002.456	-118.23
1002.702	42.77
1002.948	-48.23
1003.194	-137.23
1003.44	-158.23
1003.686	-71.23
1003.932	-121.23
1004.178	-165.23
1004.424	-99.23
1004.67	45.77
1004.916	39.77
1005.162	-62.23
1005.408	-129.23
1005.654	4.77
1005.9	-142.23
1006.146	-212.23
1006.392	-138.23
1006.638	-53.23
1006.884	-80.23
1007.13	-166.23
1007.376	-186.23
1007.622	-10.23
1007.868	14.77
1008.114	-116.23
1008.36	-48.23
1008.606	-11.23
1008.852	-17.23
1009.098	-59.23
1009.344	-22.23
1009.59	-55.23
1009.836	-180.23
1010.082	-242.23
1010.328	-141.23
1010.574	-61.23
1010.82	-146.23
1011.065	-229.23
1011.311	-194.23
1011.557	-84.23
1011.803	-107.23
1012.049	-168.23
1012.295	-120.23
1012.541	-88.23
1012.787	-98.23
1013.033	-210.23
1013.278	-217.23
1013.524	-69.23
1013.77	4.77
1014.016	-112.23
1014.262	-106.23
1014.508	5.77
1014.754	-165.23
1015	-190.23
1015.245	-26.23
1015.491	1.77
1015.737	-32.23
1015.983	-164.23
1016.229	-194.23
1016.475	-81.23
1016.72	57.77
1016.966	79.77
1017.212	-44.23
1017.458	29.77
1017.704	-33.23
1017.949	-181.23
1018.195	-12.23
1018.441	79.77
1018.687	39.77
1018.933	-101.23
1019.178	-128.23
1019.424	26.77
1019.67	33.77
1019.916	-165.23
1020.161	-109.23
1020.407	-36.23
1020.653	-98.23
1020.899	-153.23
1021.144	-88.23
1021.39	-5.23
1021.636	-115.23
1021.882	-207.23
1022.127	-99.23
1022.373	70.77
1022.619	14.77
1022.865	-116.23
1023.11	-112.23
1023.356	18.77
1023.602	-61.23
1023.847	-122.23
1024.093	-64.23
1024.339	-83.23
1024.584	-101.23
1024.83	-118.23
1025.076	-130.23
1025.321	-2.23
1025.567	-21.23
1025.813	-142.23
1026.058	-49.23
1026.304	10.77
1026.55	-85.23
1026.795	-96.23
1027.041	-95.23
1027.287	-24.23
1027.532	-20.23
1027.778	-44.23
1028.024	-68.23
1028.269	-40.23
1028.515	-129.23
1028.76	-171.23
1029.006	-92.23
1029.252	24.77
1029.497	-41.23
1029.743	-77.23
1029.989	-140.23
1030.234	3.77
1030.48	79.77
1030.725	-110.23
1030.971	-85.23
1031.216	46.77
1031.462	-35.23
1031.708	-178.23
1031.953	-130.23
1032.199	-48.23
1032.444	-35.23
1032.69	-80.23
1032.935	-106.23
1033.181	14.77
1033.426	-105.23
1033.672	-241.23
1033.918	-187.23
1034.163	-64.23
1034.409	-71.23
1034.654	-133.23
1034.9	-46.23
1035.145	9.77
1035.391	-66.23
1035.636	-181.23
1035.882	-108.23
1036.127	-103.23
1036.373	-120.23
1036.618	-215.23
1036.864	-114.23
1037.109	6.77
1037.355	-72.23
1037.6	-137.23
1037.845	-120.23
1038.091	94.77
1038.336	55.77
1038.582	56.77
1038.827	123.77
1039.073	-25.23
1039.318	-111.23
1039.564	-194.23
1039.809	-125.23
1040.055	58.77
1040.3	51.77
1040.545	-124.23
1040.791	-124.23
1041.036	-63.23
1041.282	-17.23
1041.527	34.77
1041.772	-151.23
1042.018	-83.23
1042.263	-48.23
1042.509	-186.23
1042.754	-143.23
1042.999	-26.23
1043.245	-51.23
1043.49	-234.23
1043.736	-155.23
1043.981	-60.23
1044.226	-44.23
1044.472	-67.23
1044.717	-61.23
1044.962	37.77
1045.208	-39.23
1045.453	-268.23
1045.698	-198.23
1045.944	19.77
1046.189	-28.23
1046.434	-136.23
1046.68	-98.23
1046.925	80.77
1047.17	-73.23
1047.416	-256.23
1047.661	-146.23
1047.906	-3.23
1048.152	-18.23
1048.397	-100.23
1048.642	-130.23
1048.887	63.77
1049.133	72.77
1049.378	-95.23
1049.623	-123.23
1049.869	-9.23
1050.114	-80.23
1050.359	-149.23
1050.604	-80.23
1050.85	81.77
1051.095	-55.23
1051.34	-149.23
1051.585	-77.23
1051.831	112.77
1052.076	-52.23
1052.321	-261.23
1052.566	-146.23
1052.812	55.77
1053.057	-42.23
1053.302	-111.23
1053.547	-26.23
1053.792	25.77
1054.038	30.77
1054.283	-177.23
1054.528	-99.23
1054.773	-20.23
1055.018	-35.23
1055.264	-139.23
1055.509	-166.23
1055.754	-40.23
1055.999	-114.23
1056.244	-175.23
1056.49	-99.23
1056.735	-24.23
1056.98	-75.23
1057.225	-174.23
1057.47	17.77
1057.715	-61.23
1057.96	-145.23
1058.206	-174.23
1058.451	-70.23
1058.696	48.77
1058.941	-4.23
1059.186	-174.23
1059.431	-141.23
1059.676	55.77
1059.922	-15.23
1060.167	75.77
1060.412	258.77
1060.657	28.77
1060.902	-34.23
1061.147	-208.23
1061.392	-126.23
1061.637	15.77
1061.882	-83.23
1062.127	-215.23
1062.373	-193.23
1062.618	66.77
1062.863	99.77
1063.108	-92.23
1063.353	-164.23
1063.598	-58.23
1063.843	-84.23
1064.088	-170.23
1064.333	-167.23
1064.578	-12.23
1064.823	19.77
1065.068	-215.23
1065.313	-133.23
1065.558	-0.23
1065.803	-6.23
1066.048	-193.23
1066.293	-177.23
1066.538	30.77
1066.783	-34.23
1067.028	-226.23
1067.273	-193.23
1067.518	1.77
1067.763	-63.23
1068.008	-221.23
1068.253	-161.23
1068.498	18.77
1068.743	-26.23
1068.988	-188.23
1069.233	-180.23
1069.478	37.77
1069.723	96.77
1069.968	-103.23
1070.213	-75.23
1070.458	29.77
1070.703	-62.23
1070.948	-237.23
1071.193	-109.23
1071.438	20.77
1071.683	49.77
1071.928	-87.23
1072.173	-93.23
1072.418	-20.23
1072.663	-68.23
1072.908	-196.23
1073.152	-113.23
1073.397	46.77
1073.642	-69.23
1073.887	-108.23
1074.132	-5.23
1074.377	-8.23
1074.622	-30.23
1074.867	-144.23
1075.112	-81.23
1075.357	90.77
1075.601	-50.23
1075.846	-106.23
1076.091	-23.23
1076.336	15.77
1076.581	-112.23
1076.826	-215.23
1077.071	-119.23
1077.315	131.77
1077.56	69.77
1077.805	-154.23
1078.05	-125.23
1078.295	-65.23
1078.54	-84.23
1078.785	-195.23
1079.029	-145.23
1079.274	30.77
1079.519	-114.23
1079.764	-198.23
1080.009	-88.23
1080.253	-14.23
1080.498	-91.23
1080.743	-232.23
1080.988	-87.23
1081.233	126.77
1081.478	52.77
1081.722	-131.23
1081.967	-32.23
1082.212	119.77
1082.457	-6.23
1082.701	-139.23
1082.946	-102.23
1083.191	31.77
1083.436	-72.23
1083.681	-227.23
1083.925	-122.23
1084.17	-22.23
1084.415	10.77
1084.66	-205.23
1084.904	-103.23
1085.149	-22.23
1085.394	-45.23
1085.639	-220.23
1085.883	-122.23
1086.128	126.77
1086.373	133.77
1086.617	-94.23
1086.862	-163.23
1087.107	-35.23
1087.352	-98.23
1087.596	-182.23
1087.841	-44.23
1088.086	2.77
1088.33	-9.23
1088.575	-252.23
1088.82	-122.23
1089.064	48.77
1089.309	-91.23
1089.554	-209.23
1089.798	-176.23
1090.043	11.77
1090.288	-33.23
1090.533	-225.23
1090.777	-141.23
1091.022	-3.23
1091.266	18.77
1091.511	-134.23
1091.756	-44.23
1092	99.77
1092.245	73.77
1092.49	-164.23
1092.734	-105.23
1092.979	74.77
1093.224	-30.23
1093.468	-187.23
1093.713	-136.23
1093.957	-7.23
1094.202	-70.23
1094.447	-228.23
1094.691	-112.23
1094.936	38.77
1095.181	-4.23
1095.425	-194.23
1095.67	-152.23
1095.914	14.77
1096.159	-17.23
1096.403	-177.23
1096.648	-70.23
1096.893	61.77
1097.137	-99.23
1097.382	-247.23
1097.626	-168.23
1097.871	-4.23
1098.115	-55.23
1098.36	-208.23
1098.605	-80.23
1098.849	-8.23
1099.094	-119.23
1099.338	-196.23
1099.583	-91.23
1099.827	126.77
1100.072	34.77
1100.316	-172.23
1100.561	-113.23
1100.805	47.77
1101.05	12.77
1101.294	-189.23
1101.539	-171.23
1101.783	-16.23
1102.028	-17.23
1102.273	-147.23
1102.517	-86.23
1102.761	44.77
1103.006	-78.23
1103.25	-279.23
1103.495	-177.23
1103.739	35.77
1103.984	82.77
1104.228	-104.23
1104.473	-30.23
1104.717	36.77
1104.962	-9.23
1105.206	-126.23
1105.451	-162.23
1105.695	-8.23
1105.94	-28.23
1106.184	-168.23
1106.429	-121.23
1106.673	-4.23
1106.917	53.77
1107.162	-176.23
1107.406	-39.23
1107.651	123.77
1107.895	-90.23
1108.14	-190.23
1108.384	-103.23
1108.628	112.77
1108.873	104.77
1109.117	-144.23
1109.362	-131.23
1109.606	-35.23
1109.85	-31.23
1110.095	-183.23
1110.339	-111.23
1110.584	78.77
1110.828	18.77
1111.072	-87.23
1111.317	-117.23
1111.561	-5.23
1111.806	-36.23
1112.05	-182.23
1112.294	-100.23
1112.539	12.77
1112.783	-19.23
1113.027	-120.23
1113.272	-106.23
1113.516	-9.23
1113.76	-48.23
1114.005	-158.23
1114.249	-85.23
1114.493	69.77
1114.738	110.77
1114.982	-28.23
1115.226	-84.23
1115.471	-4.23
1115.715	-23.23
1115.959	-190.23
1116.204	-173.23
1116.448	-6.23
1116.692	-93.23
1116.937	-174.23
1117.181	-12.23
1117.425	-29.23
1117.67	-87.23
1117.914	-162.23
1118.158	-110.23
1118.402	116.77
1118.647	43.77
1118.891	-100.23
1119.135	-35.23
1119.38	103.77
1119.624	19.77
1119.868	-133.23
1120.112	-142.23
1120.357	-49.23
1120.601	-130.23
1120.845	-231.23
1121.089	-161.23
1121.334	7.77
