Data from HR4C21111__51__10-17-44-134.txt Node

Date: Mon Feb 22 10:17:44 IST 2021
User: Kapil
Spectrometer: HR4C2111
Trigger mode: 4
Integration Time (sec): 2.300000E0
Scans to average: 1
Electric dark correction enabled: true
Nonlinearity correction enabled: false
Boxcar width: 0
XAxis mode: Wavelengths
Number of Pixels in Spectrum: 3648
>>>>>Begin Spectral Data<<<<<
189.472	-462.85
189.745	-462.85
190.017	-462.85
190.289	-463.85
190.561	-290.85
190.834	-16.85
191.106	-116.85
191.378	22.15
191.65	-0.85
191.923	-141.85
192.195	-98.85
192.467	123.15
192.739	111.15
193.011	-28.85
193.284	85.15
193.556	171.15
193.828	-20.85
194.1	-87.85
194.372	-100.85
194.644	61.15
194.916	71.15
195.188	-142.85
195.46	-69.85
195.732	63.15
196.004	-21.85
196.276	-128.85
196.548	-86.85
196.82	63.15
197.092	67.15
197.364	-128.85
197.636	-85.85
197.908	26.15
198.18	-48.85
198.452	-84.85
198.724	-47.85
198.996	50.15
199.268	76.15
199.54	-28.85
199.811	-107.85
200.083	99.15
200.355	22.15
200.627	-196.85
200.899	-74.85
201.171	33.15
201.442	-53.85
201.714	-171.85
201.986	-97.85
202.258	64.15
202.529	114.15
202.801	2.15
203.073	70.15
203.345	196.15
203.616	18.15
203.888	-139.85
204.16	-162.85
204.431	68.15
204.703	-0.85
204.974	-141.85
205.246	-6.85
205.518	164.15
205.789	-8.85
206.061	-124.85
206.332	-99.85
206.604	15.15
206.876	96.15
207.147	136.15
207.419	25.15
207.69	134.15
207.962	-20.85
208.233	-179.85
208.505	4.15
208.776	171.15
209.047	77.15
209.319	-130.85
209.59	-77.85
209.862	114.15
210.133	-19.85
210.404	-166.85
210.676	-111.85
210.947	80.15
211.219	66.15
211.49	-132.85
211.761	-57.85
212.033	36.15
212.304	-40.85
212.575	-185.85
212.846	-84.85
213.118	37.15
213.389	-62.85
213.66	-116.85
213.931	-37.85
214.203	42.15
214.474	-32.85
214.745	-127.85
215.016	152.15
215.287	467.15
215.559	72.15
215.83	-116.85
216.101	-65.85
216.372	8.15
216.643	67.15
216.914	11.15
217.185	-80.85
217.456	140.15
217.727	15.15
217.998	-154.85
218.269	-51.85
218.54	30.15
218.811	-17.85
219.082	-108.85
219.353	-75.85
219.624	-16.85
219.895	-36.85
220.166	-138.85
220.437	-124.85
220.708	94.15
220.979	-14.85
221.25	-140.85
221.521	-101.85
221.792	22.15
222.063	78.15
222.334	40.15
222.604	196.15
222.875	179.15
223.146	115.15
223.417	-161.85
223.688	-31.85
223.958	132.15
224.229	-49.85
224.5	-188.85
224.771	-83.85
225.041	91.15
225.312	46.15
225.583	-104.85
225.854	-62.85
226.124	98.15
226.395	-17.85
226.666	-141.85
226.936	-97.85
227.207	79.15
227.478	-38.85
227.748	-102.85
228.019	38.15
228.289	243.15
228.56	-24.85
228.831	-37.85
229.101	49.15
229.372	75.15
229.642	-16.85
229.913	-163.85
230.183	-131.85
230.454	-6.85
230.724	9.15
230.995	-97.85
231.265	-69.85
231.536	50.15
231.806	39.15
232.076	-117.85
232.347	-109.85
232.617	42.15
232.888	16.15
233.158	-68.85
233.428	-123.85
233.699	-6.85
233.969	-47.85
234.239	-157.85
234.51	-96.85
234.78	46.15
235.05	-21.85
235.321	-132.85
235.591	-75.85
235.861	61.15
236.131	-65.85
236.402	-188.85
236.672	-81.85
236.942	52.15
237.212	53.15
237.483	-53.85
237.753	6.15
238.023	168.15
238.293	15.15
238.563	-85.85
238.833	-120.85
239.103	56.15
239.374	-21.85
239.644	-154.85
239.914	-47.85
240.184	129.15
240.454	-11.85
240.724	-170.85
240.994	-68.85
241.264	26.15
241.534	64.15
241.804	-8.85
242.074	-75.85
242.344	-24.85
242.614	-62.85
242.884	-186.85
243.154	-136.85
243.424	30.15
243.694	55.15
243.964	-86.85
244.234	-67.85
244.503	107.15
244.773	-0.85
245.043	-218.85
245.313	-148.85
245.583	115.15
245.853	77.15
246.123	-177.85
246.392	-115.85
246.662	-14.85
246.932	-25.85
247.202	-172.85
247.471	-65.85
247.741	244.15
248.011	103.15
248.281	-144.85
248.55	-88.85
248.82	69.15
249.09	-0.85
249.359	-93.85
249.629	-73.85
249.899	52.15
250.168	66.15
250.438	-16.85
250.708	-104.85
250.977	83.15
251.247	58.15
251.516	-116.85
251.786	-51.85
252.055	132.15
252.325	25.15
252.595	-105.85
252.864	-59.85
253.134	59.15
253.403	-24.85
253.673	-169.85
253.942	-109.85
254.212	46.15
254.481	8.15
254.75	-153.85
255.02	-90.85
255.289	74.15
255.559	-14.85
255.828	-141.85
256.097	-50.85
256.367	30.15
256.636	-59.85
256.906	-131.85
257.175	-20.85
257.444	256.15
257.714	56.15
257.983	-86.85
258.252	-28.85
258.521	10.15
258.791	21.15
259.06	-115.85
259.329	-43.85
259.598	58.15
259.868	-13.85
260.137	-136.85
260.406	-28.85
260.675	88.15
260.944	14.15
261.214	-140.85
261.483	-51.85
261.752	169.15
262.021	3.15
262.29	-176.85
262.559	-130.85
262.828	31.15
263.097	-37.85
263.366	-208.85
263.635	-95.85
263.905	129.15
264.174	0.15
264.443	-215.85
264.712	-118.85
264.981	26.15
265.25	-54.85
265.519	-140.85
265.788	-131.85
266.057	43.15
266.325	56.15
266.594	-57.85
266.863	-120.85
267.132	22.15
267.401	10.15
267.67	-183.85
267.939	-151.85
268.208	30.15
268.477	66.15
268.745	-133.85
269.014	-98.85
269.283	136.15
269.552	31.15
269.821	-119.85
270.089	-23.85
270.358	-19.85
270.627	-41.85
270.896	-137.85
271.164	-168.85
271.433	21.15
271.702	90.15
271.971	-144.85
272.239	-145.85
272.508	17.15
272.777	-39.85
273.045	-22.85
273.314	-26.85
273.583	87.15
273.851	-23.85
274.12	-165.85
274.388	-136.85
274.657	2.15
274.926	-12.85
275.194	-164.85
275.463	-77.85
275.731	26.15
276	160.15
276.268	371.15
276.537	-79.85
276.805	27.15
277.074	32.15
277.342	-177.85
277.611	-92.85
277.879	109.15
278.148	48.15
278.416	-128.85
278.684	-125.85
278.953	-27.85
279.221	-35.85
279.49	-207.85
279.758	-111.85
280.026	-12.85
280.295	-5.85
280.563	-128.85
280.831	1027.15
281.1	2475.15
281.368	227.15
281.636	-96.85
281.904	-119.85
282.173	-19.85
282.441	-68.85
282.709	-114.85
282.977	23.15
283.246	52.15
283.514	-44.85
283.782	-81.85
284.05	16.15
284.318	55.15
284.587	-49.85
284.855	-152.85
285.123	-58.85
285.391	66.15
285.659	33.15
285.927	-153.85
286.195	-62.85
286.463	56.15
286.732	-6.85
287	-121.85
287.268	-67.85
287.536	21.15
287.804	-36.85
288.072	-137.85
288.34	-93.85
288.608	67.15
288.876	-38.85
289.144	-129.85
289.412	-22.85
289.68	45.15
289.948	-25.85
290.215	-118.85
290.483	-102.85
290.751	86.15
291.019	80.15
291.287	-179.85
291.555	-119.85
291.823	27.15
292.091	-23.85
292.358	-75.85
292.626	-25.85
292.894	60.15
293.162	38.15
293.43	-107.85
293.697	-83.85
293.965	46.15
294.233	-33.85
294.501	-180.85
294.768	-84.85
295.036	68.15
295.304	32.15
295.572	-144.85
295.839	-95.85
296.107	109.15
296.375	-0.85
296.642	-129.85
296.91	-126.85
297.178	43.15
297.445	172.15
297.713	100.15
297.98	-76.85
298.248	-26.85
298.516	-33.85
298.783	-133.85
299.051	-128.85
299.318	16.15
299.586	-33.85
299.853	-106.85
300.121	-82.85
300.388	47.15
300.656	-9.85
300.923	-147.85
301.191	-53.85
301.458	48.15
301.726	-20.85
301.993	-145.85
302.26	-107.85
302.528	27.15
302.795	-11.85
303.063	-84.85
303.33	-61.85
303.597	23.15
303.865	15.15
304.132	-133.85
304.399	-129.85
304.667	-40.85
304.934	-1.85
305.201	-120.85
305.469	-25.85
305.736	41.15
306.003	20.15
306.27	-56.85
306.538	-99.85
306.805	-11.85
307.072	-39.85
307.339	-106.85
307.606	-49.85
307.874	153.15
308.141	66.15
308.408	-145.85
308.675	-111.85
308.942	-52.85
309.209	-77.85
309.477	-140.85
309.744	-111.85
310.011	16.15
310.278	42.15
310.545	-37.85
310.812	-61.85
311.079	141.15
311.346	197.15
311.613	40.15
311.88	-47.85
312.147	-76.85
312.414	-58.85
312.681	-132.85
312.948	-45.85
313.215	110.15
313.482	82.15
313.749	-95.85
314.016	-219.85
314.283	-67.85
314.55	39.15
314.817	-119.85
315.083	-137.85
315.35	-88.85
315.617	-157.85
315.884	-164.85
316.151	43.15
316.418	154.15
316.684	-22.85
316.951	-205.85
317.218	-122.85
317.485	-2.85
317.752	-68.85
318.018	-133.85
318.285	-19.85
318.552	11.15
318.819	-63.85
319.085	-145.85
319.352	-50.85
319.619	41.15
319.885	-33.85
320.152	-196.85
320.419	-107.85
320.685	21.15
320.952	-42.85
321.219	-81.85
321.485	52.15
321.752	3.15
322.019	-57.85
322.285	30.15
322.552	-17.85
322.818	114.15
323.085	-32.85
323.351	-146.85
323.618	-13.85
323.884	48.15
324.151	-57.85
324.417	-52.85
324.684	-91.85
324.95	-63.85
325.217	-162.85
325.483	-186.85
325.75	-32.85
326.016	1.15
326.283	-43.85
326.549	-194.85
326.815	-90.85
327.082	95.15
327.348	1.15
327.615	-122.85
327.881	-43.85
328.147	121.15
328.414	129.15
328.68	24.15
328.946	-37.85
329.212	15.15
329.479	-7.85
329.745	-112.85
330.011	-111.85
330.278	9.15
330.544	-59.85
330.81	-38.85
331.076	-53.85
331.342	-44.85
331.609	-28.85
331.875	-104.85
332.141	-103.85
332.407	16.15
332.673	-13.85
332.94	-20.85
333.206	-59.85
333.472	30.15
333.738	64.15
334.004	-125.85
334.27	-35.85
334.536	-7.85
334.802	-50.85
335.068	-122.85
335.334	0.15
335.6	22.15
335.866	-48.85
336.132	-188.85
336.398	-107.85
336.664	-28.85
336.93	-53.85
337.196	-88.85
337.462	-24.85
337.728	22.15
337.994	-63.85
338.26	-99.85
338.526	-44.85
338.792	-54.85
339.058	-51.85
339.324	-164.85
339.59	-29.85
339.856	43.15
340.121	-65.85
340.387	-133.85
340.653	63.15
340.919	139.15
341.185	40.15
341.45	-94.85
341.716	-0.85
341.982	90.15
342.248	-67.85
342.514	-94.85
342.779	-20.85
343.045	1.15
343.311	-28.85
343.576	-105.85
343.842	-44.85
344.108	119.15
344.374	-4.85
344.639	-126.85
344.905	-100.85
345.171	57.15
345.436	-74.85
345.702	-112.85
345.967	38.15
346.233	49.15
346.499	2.15
346.764	-188.85
347.03	-97.85
347.295	-55.85
347.561	-14.85
347.826	-45.85
348.092	-116.85
348.357	-30.85
348.623	-34.85
348.888	-137.85
349.154	-118.85
349.419	23.15
349.685	-7.85
349.95	-97.85
350.216	-66.85
350.481	19.15
350.747	-78.85
351.012	-194.85
351.277	-119.85
351.543	2.15
351.808	-44.85
352.074	-200.85
352.339	-150.85
352.604	25.15
352.87	3.15
353.135	-147.85
353.4	-114.85
353.666	-56.85
353.931	-44.85
354.196	-180.85
354.461	-156.85
354.727	-4.85
354.992	-29.85
355.257	-163.85
355.522	-64.85
355.788	-25.85
356.053	33.15
356.318	-114.85
356.583	-132.85
356.848	62.15
357.113	175.15
357.379	-96.85
357.644	-136.85
357.909	48.15
358.174	95.15
358.439	-157.85
358.704	-91.85
358.969	29.15
359.234	28.15
359.499	-160.85
359.765	-72.85
360.03	41.15
360.295	37.15
360.56	-145.85
360.825	-90.85
361.09	116.15
361.355	-60.85
361.62	-100.85
361.885	-67.85
362.15	-87.85
362.415	-79.85
362.679	-150.85
362.944	8.15
363.209	17.15
363.474	36.15
363.739	-36.85
364.004	-132.85
364.269	-62.85
364.534	-18.85
364.799	-62.85
365.063	-71.85
365.328	13.15
365.593	6.15
365.858	-113.85
366.123	-121.85
366.387	13.15
366.652	-69.85
366.917	-177.85
367.182	-136.85
367.447	18.15
367.711	-9.85
367.976	-87.85
368.241	-11.85
368.505	65.15
368.77	-58.85
369.035	-72.85
369.299	-27.85
369.564	3.15
369.829	-76.85
370.093	-117.85
370.358	-135.85
370.623	-30.85
370.887	-3.85
371.152	-160.85
371.416	-88.85
371.681	-48.85
371.946	-151.85
372.21	-174.85
372.475	-38.85
372.739	-11.85
373.004	-65.85
373.268	-117.85
373.533	-48.85
373.797	3.15
374.062	-34.85
374.326	-178.85
374.591	-80.85
374.855	8.15
375.12	-83.85
375.384	-240.85
375.648	-157.85
375.913	-5.85
376.177	-3.85
376.442	-127.85
376.706	-116.85
376.97	3.15
377.235	-36.85
377.499	-89.85
377.763	-91.85
378.028	-96.85
378.292	-53.85
378.556	-110.85
378.821	-189.85
379.085	-117.85
379.349	-193.85
379.614	-249.85
379.878	-120.85
380.142	76.15
380.406	-29.85
380.671	-56.85
380.935	85.15
381.199	164.15
381.463	35.15
381.727	-18.85
381.991	-67.85
382.256	-15.85
382.52	-73.85
382.784	-46.85
383.048	82.15
383.312	-5.85
383.576	-35.85
383.84	-163.85
384.104	-116.85
384.369	-22.85
384.633	-131.85
384.897	-230.85
385.161	-104.85
385.425	4.15
385.689	-68.85
385.953	-139.85
386.217	-160.85
386.481	-55.85
386.745	-41.85
387.009	-79.85
387.273	-127.85
387.537	-71.85
387.801	-52.85
388.064	-130.85
388.328	-33.85
388.592	-0.85
388.856	-76.85
389.12	-137.85
389.384	-68.85
389.648	-23.85
389.912	50.15
390.176	36.15
390.439	123.15
390.703	-58.85
390.967	-92.85
391.231	-177.85
391.495	-112.85
391.758	-50.85
392.022	-43.85
392.286	-167.85
392.55	-154.85
392.813	-40.85
393.077	1.15
393.341	-66.85
393.605	6.15
393.868	-37.85
394.132	-45.85
394.396	-89.85
394.659	27.15
394.923	-33.85
395.187	-91.85
395.45	-110.85
395.714	-49.85
395.978	-35.85
396.241	-24.85
396.505	-96.85
396.768	-49.85
397.032	-12.85
397.295	-8.85
397.559	-88.85
397.823	-118.85
398.086	9.15
398.35	-58.85
398.613	-170.85
398.877	-33.85
399.14	92.15
399.404	82.15
399.667	-35.85
399.931	-104.85
400.194	-11.85
400.457	-42.85
400.721	-61.85
400.984	22.15
401.248	-36.85
401.511	-73.85
401.775	-174.85
402.038	-138.85
402.301	68.15
402.565	18.15
402.828	-196.85
403.091	-118.85
403.355	1.15
403.618	-8.85
403.881	-16.85
404.145	-49.85
404.408	-9.85
404.671	-54.85
404.934	-39.85
405.198	-7.85
405.461	-9.85
405.724	10.15
405.987	-21.85
406.251	14.15
406.514	97.15
406.777	-44.85
407.04	-126.85
407.303	-126.85
407.567	15.15
407.83	69.15
408.093	-145.85
408.356	-59.85
408.619	29.15
408.882	83.15
409.145	-26.85
409.408	-68.85
409.672	27.15
409.935	-37.85
410.198	-175.85
410.461	-92.85
410.724	77.15
410.987	-12.85
411.25	-161.85
411.513	-23.85
411.776	50.15
412.039	-74.85
412.302	-136.85
412.565	-99.85
412.828	-57.85
413.091	-65.85
413.354	-149.85
413.617	-119.85
413.879	-28.85
414.142	-20.85
414.405	-162.85
414.668	-77.85
414.931	37.15
415.194	3.15
415.457	-150.85
415.72	-66.85
415.983	-14.85
416.245	-9.85
416.508	-115.85
416.771	-154.85
417.034	-2.85
417.297	-0.85
417.559	-38.85
417.822	-81.85
418.085	3.15
418.348	-8.85
418.61	-169.85
418.873	-144.85
419.136	-109.85
419.399	-120.85
419.661	-88.85
419.924	-89.85
420.187	-5.85
420.449	-33.85
420.712	-109.85
420.975	-143.85
421.237	-38.85
421.5	-36.85
421.762	-2.85
422.025	32.15
422.288	54.15
422.55	-129.85
422.813	-191.85
423.075	-84.85
423.338	-14.85
423.601	-5.85
423.863	-68.85
424.126	-57.85
424.388	46.15
424.651	-13.85
424.913	-70.85
425.176	-78.85
425.438	-46.85
425.701	44.15
425.963	-115.85
426.225	-169.85
426.488	-66.85
426.75	-74.85
427.013	-152.85
427.275	-111.85
427.538	-62.85
427.8	-65.85
428.062	-132.85
428.325	-57.85
428.587	23.15
428.849	-27.85
429.112	-96.85
429.374	-121.85
429.636	-70.85
429.899	6.15
430.161	-109.85
430.423	-72.85
430.686	39.15
430.948	-16.85
431.21	-143.85
431.472	-155.85
431.735	-65.85
431.997	-83.85
432.259	-50.85
432.521	-121.85
432.783	-27.85
433.046	-38.85
433.308	-140.85
433.57	-94.85
433.832	123.15
434.094	-79.85
434.356	-180.85
434.618	-85.85
434.881	-30.85
435.143	-81.85
435.405	-60.85
435.667	-21.85
435.929	-30.85
436.191	-68.85
436.453	-138.85
436.715	-58.85
436.977	13.15
437.239	-33.85
437.501	-170.85
437.763	-147.85
438.025	-15.85
438.287	-18.85
438.549	-115.85
438.811	-85.85
439.073	-43.85
439.335	-114.85
439.597	-139.85
439.859	-50.85
440.121	65.15
440.383	-107.85
440.645	-133.85
440.907	-70.85
441.168	-22.85
441.43	-72.85
441.692	-169.85
441.954	-131.85
442.216	-59.85
442.478	-77.85
442.74	-185.85
443.001	-69.85
443.263	67.15
443.525	11.15
443.787	-125.85
444.048	-98.85
444.31	-62.85
444.572	-74.85
444.834	-114.85
445.095	-109.85
445.357	10.15
445.619	-34.85
445.881	-225.85
446.142	-134.85
446.404	-81.85
446.666	-69.85
446.927	-109.85
447.189	23.15
447.451	31.15
447.712	-10.85
447.974	-229.85
448.235	-184.85
448.497	-55.85
448.759	-107.85
449.02	-171.85
449.282	-190.85
449.543	-31.85
449.805	23.15
450.066	-200.85
450.328	-64.85
450.59	112.15
450.851	-23.85
451.113	-59.85
451.374	-145.85
451.636	-16.85
451.897	9.15
452.158	-57.85
452.42	45.15
452.681	81.15
452.943	-111.85
453.204	-205.85
453.466	-191.85
453.727	-85.85
453.988	-37.85
454.25	-161.85
454.511	-190.85
454.773	-66.85
455.034	80.15
455.295	-137.85
455.557	-154.85
455.818	-50.85
456.079	-40.85
456.341	48.15
456.602	26.15
456.863	19.15
457.124	-46.85
457.386	-159.85
457.647	-176.85
457.908	-87.85
458.169	12.15
458.431	-169.85
458.692	-167.85
458.953	-56.85
459.214	-93.85
459.476	-107.85
459.737	-15.85
459.998	29.15
460.259	-82.85
460.52	-182.85
460.781	-136.85
461.043	34.15
461.304	-82.85
461.565	-205.85
461.826	-148.85
462.087	-32.85
462.348	-0.85
462.609	-117.85
462.87	-75.85
463.131	-93.85
463.392	-16.85
463.653	-95.85
463.914	-64.85
464.175	-38.85
464.436	-86.85
464.697	-159.85
464.958	-129.85
465.219	-24.85
465.48	-54.85
465.741	-92.85
466.002	-132.85
466.263	-63.85
466.524	-45.85
466.785	-153.85
467.046	-130.85
467.307	-40.85
467.568	-107.85
467.829	-107.85
468.089	-77.85
468.35	-28.85
468.611	-90.85
468.872	-170.85
469.133	-54.85
469.394	19.15
469.655	69.15
469.915	-108.85
470.176	-174.85
470.437	-130.85
470.698	-49.85
470.958	-118.85
471.219	-177.85
471.48	-101.85
471.741	-104.85
472.001	-185.85
472.262	-137.85
472.523	-4.85
472.784	22.15
473.044	-109.85
473.305	-68.85
473.566	31.15
473.826	-1.85
474.087	-129.85
474.348	-106.85
474.608	-34.85
474.869	-0.85
475.129	-119.85
475.39	-154.85
475.651	-56.85
475.911	-41.85
476.172	-185.85
476.432	-74.85
476.693	73.15
476.953	-12.85
477.214	-25.85
477.475	-6.85
477.735	-13.85
477.996	-12.85
478.256	-195.85
478.517	-156.85
478.777	-46.85
479.038	10.15
479.298	-20.85
479.558	-100.85
479.819	49.15
480.079	52.15
480.34	-48.85
480.6	-121.85
480.861	-3.85
481.121	-39.85
481.381	-142.85
481.642	-64.85
481.902	-70.85
482.162	-132.85
482.423	-103.85
482.683	-23.85
482.943	15.15
483.204	-79.85
483.464	-114.85
483.724	-86.85
483.985	-36.85
484.245	-12.85
484.505	-99.85
484.765	-13.85
485.026	52.15
485.286	18.15
485.546	-59.85
485.806	6.15
486.067	16.15
486.327	-94.85
486.587	-164.85
486.847	-157.85
487.107	-32.85
487.368	-22.85
487.628	-96.85
487.888	-104.85
488.148	-1.85
488.408	-80.85
488.668	-72.85
488.928	-23.85
489.188	-11.85
489.449	81.15
489.709	-91.85
489.969	-106.85
490.229	-8.85
490.489	-42.85
490.749	-130.85
491.009	-195.85
491.269	-94.85
491.529	-82.85
491.789	-164.85
492.049	-66.85
492.309	45.15
492.569	-77.85
492.829	-120.85
493.089	-120.85
493.349	52.15
493.609	-40.85
493.869	-151.85
494.129	-58.85
494.389	42.15
494.648	-88.85
494.908	-173.85
495.168	-85.85
495.428	43.15
495.688	-39.85
495.948	-198.85
496.208	-177.85
496.467	-98.85
496.727	-48.85
496.987	-82.85
497.247	-105.85
497.507	-14.85
497.767	6.15
498.026	-167.85
498.286	-61.85
498.546	141.15
498.806	13.15
499.065	41.15
499.325	-38.85
499.585	-37.85
499.845	-39.85
500.104	-45.85
500.364	50.15
500.624	4.15
500.883	-69.85
501.143	-40.85
501.403	9.15
501.662	84.15
501.922	1.15
502.182	-148.85
502.441	-149.85
502.701	-78.85
502.96	40.15
503.22	-50.85
503.48	-88.85
503.739	-21.85
503.999	-54.85
504.258	-142.85
504.518	-86.85
504.777	28.15
505.037	-46.85
505.296	-112.85
505.556	-119.85
505.815	34.15
506.075	118.15
506.334	-8.85
506.594	-149.85
506.853	-97.85
507.113	-89.85
507.372	-228.85
507.632	-159.85
507.891	-53.85
508.151	-15.85
508.41	-144.85
508.669	-115.85
508.929	1.15
509.188	-45.85
509.447	-98.85
509.707	-126.85
509.966	-51.85
510.226	-36.85
510.485	-84.85
510.744	-67.85
511.004	9.15
511.263	-72.85
511.522	-148.85
511.781	-116.85
512.041	10.15
512.3	-64.85
512.559	-19.85
512.818	13.15
513.078	9.15
513.337	-19.85
513.596	-88.85
513.855	-104.85
514.115	31.15
514.374	-36.85
514.633	-146.85
514.892	-170.85
515.151	-29.85
515.41	23.15
515.67	-90.85
515.929	-125.85
516.188	-21.85
516.447	-35.85
516.706	-129.85
516.965	-91.85
517.224	-49.85
517.483	-81.85
517.743	-119.85
518.002	-76.85
518.261	11.15
518.52	-38.85
518.779	-153.85
519.038	-121.85
519.297	-58.85
519.556	-75.85
519.815	-167.85
520.074	-166.85
520.333	-57.85
520.592	-69.85
520.851	-160.85
521.11	-48.85
521.369	109.15
521.628	-70.85
521.887	-168.85
522.145	-91.85
522.404	-32.85
522.663	-48.85
522.922	-195.85
523.181	-174.85
523.44	-43.85
523.699	-16.85
523.958	-177.85
524.217	-143.85
524.475	-106.85
524.734	-144.85
524.993	-164.85
525.252	-96.85
525.511	-33.85
525.769	-83.85
526.028	-161.85
526.287	-101.85
526.546	-46.85
526.805	-63.85
527.063	-148.85
527.322	-167.85
527.581	-73.85
527.839	-76.85
528.098	-79.85
528.357	-59.85
528.616	-42.85
528.874	-58.85
529.133	-113.85
529.392	-91.85
529.65	-31.85
529.909	-48.85
530.168	-155.85
530.426	-130.85
530.685	-0.85
530.943	-36.85
531.202	-156.85
531.461	-141.85
531.719	7.15
531.978	-56.85
532.236	-140.85
532.495	-56.85
532.753	-4.85
533.012	-92.85
533.271	-174.85
533.529	-167.85
533.788	-61.85
534.046	-160.85
534.305	-196.85
534.563	19.15
534.822	86.15
535.08	-10.85
535.338	-105.85
535.597	-68.85
535.855	18.15
536.114	-59.85
536.372	-161.85
536.631	-84.85
536.889	15.15
537.147	-41.85
537.406	-210.85
537.664	-82.85
537.923	-20.85
538.181	-22.85
538.439	-160.85
538.698	-30.85
538.956	-38.85
539.214	-90.85
539.473	-132.85
539.731	-68.85
539.989	2.15
540.248	-73.85
540.506	-142.85
540.764	-123.85
541.022	-30.85
541.281	0.15
541.539	-116.85
541.797	-164.85
542.055	-27.85
542.314	52.15
542.572	-2.85
542.83	-139.85
543.088	-8.85
543.346	-59.85
543.604	-148.85
543.863	-74.85
544.121	64.15
544.379	-36.85
544.637	-162.85
544.895	-27.85
545.153	94.15
545.411	-54.85
545.67	-226.85
545.928	-177.85
546.186	-46.85
546.444	1.15
546.702	-78.85
546.96	-34.85
547.218	4.15
547.476	-64.85
547.734	-157.85
547.992	-85.85
548.25	18.15
548.508	-63.85
548.766	-89.85
549.024	-96.85
549.282	-77.85
549.54	-70.85
549.798	-95.85
550.056	-110.85
550.314	-6.85
550.572	-57.85
550.83	-187.85
551.088	-83.85
551.346	26.15
551.603	29.15
551.861	-131.85
552.119	-40.85
552.377	54.15
552.635	-68.85
552.893	-188.85
553.151	-167.85
553.409	-41.85
553.666	-32.85
553.924	-135.85
554.182	-147.85
554.44	11.15
554.698	67.15
554.955	-97.85
555.213	-97.85
555.471	-0.85
555.729	-39.85
555.986	-220.85
556.244	-112.85
556.502	77.15
556.76	-45.85
557.017	-116.85
557.275	-48.85
557.533	82.15
557.79	27.15
558.048	-167.85
558.306	-82.85
558.563	-1.85
558.821	-110.85
559.079	-138.85
559.336	-98.85
559.594	-58.85
559.852	-144.85
560.109	-178.85
560.367	-65.85
560.624	-12.85
560.882	-67.85
561.14	-106.85
561.397	14.15
561.655	-73.85
561.912	-54.85
562.17	-168.85
562.427	-100.85
562.685	-38.85
562.942	-53.85
563.2	-162.85
563.457	-88.85
563.715	-29.85
563.972	1.15
564.23	-174.85
564.487	-205.85
564.745	-64.85
565.002	-22.85
565.26	-128.85
565.517	-133.85
565.774	-56.85
566.032	-37.85
566.289	-108.85
566.547	-90.85
566.804	26.15
567.061	-30.85
567.319	-164.85
567.576	-58.85
567.833	86.15
568.091	117.15
568.348	-67.85
568.605	-33.85
568.863	18.15
569.12	-17.85
569.377	-136.85
569.635	-120.85
569.892	-72.85
570.149	-94.85
570.406	-213.85
570.664	-172.85
570.921	-30.85
571.178	-116.85
571.435	-92.85
571.693	-80.85
571.95	-7.85
572.207	-75.85
572.464	-118.85
572.721	-32.85
572.979	64.15
573.236	4.15
573.493	-89.85
573.75	-81.85
574.007	41.15
574.264	-51.85
574.521	-107.85
574.779	-86.85
575.036	-19.85
575.293	-68.85
575.55	-122.85
575.807	-98.85
576.064	-8.85
576.321	-65.85
576.578	-213.85
576.835	-157.85
577.092	72.15
577.349	-8.85
577.606	-211.85
577.863	-138.85
578.12	-13.85
578.377	-29.85
578.634	-221.85
578.891	-140.85
579.148	-38.85
579.405	-108.85
579.662	-212.85
579.919	-99.85
580.176	-74.85
580.433	-47.85
580.69	-96.85
580.947	-97.85
581.204	-6.85
581.461	-43.85
581.717	-146.85
581.974	18.15
582.231	43.15
582.488	-71.85
582.745	-138.85
583.002	-129.85
583.259	2.15
583.515	-35.85
583.772	-198.85
584.029	-142.85
584.286	15.15
584.543	-144.85
584.799	-145.85
585.056	-69.85
585.313	12.15
585.57	48.15
585.826	-115.85
586.083	-33.85
586.34	144.15
586.597	-48.85
586.853	-200.85
587.11	-170.85
587.367	26.15
587.623	90.15
587.88	-38.85
588.137	-122.85
588.393	-15.85
588.65	-74.85
588.907	-160.85
589.163	-99.85
589.42	-54.85
589.677	-22.85
589.933	-129.85
590.19	-34.85
590.446	79.15
590.703	65.15
590.96	-178.85
591.216	-201.85
591.473	-64.85
591.729	-66.85
591.986	-81.85
592.242	-49.85
592.499	135.15
592.755	-12.85
593.012	-199.85
593.268	-96.85
593.525	-51.85
593.781	-33.85
594.038	-129.85
594.294	-92.85
594.551	-62.85
594.807	-131.85
595.064	-144.85
595.32	-139.85
595.576	-37.85
595.833	10.15
596.089	-112.85
596.346	-50.85
596.602	18.15
596.858	77.15
597.115	-84.85
597.371	-19.85
597.628	-11.85
597.884	-61.85
598.14	-149.85
598.397	-17.85
598.653	64.15
598.909	-54.85
599.166	-174.85
599.422	-105.85
599.678	-5.85
599.934	-34.85
600.191	-171.85
600.447	-119.85
600.703	-58.85
600.959	-85.85
601.216	-217.85
601.472	-189.85
601.728	-82.85
601.984	-97.85
602.241	-184.85
602.497	-108.85
602.753	24.15
603.009	-74.85
603.265	-154.85
603.521	-18.85
603.778	81.15
604.034	-113.85
604.29	-201.85
604.546	-130.85
604.802	-42.85
605.058	-100.85
605.314	-189.85
605.571	-124.85
605.827	-84.85
606.083	-85.85
606.339	-182.85
606.595	-77.85
606.851	15.15
607.107	51.15
607.363	-153.85
607.619	-116.85
607.875	71.15
608.131	35.15
608.387	-217.85
608.643	-141.85
608.899	-56.85
609.155	-75.85
609.411	-84.85
609.667	-68.85
609.923	-54.85
610.179	-92.85
610.435	-258.85
610.691	-182.85
610.947	-15.85
611.203	-88.85
611.459	-144.85
611.714	-46.85
611.97	74.15
612.226	4.15
612.482	-178.85
612.738	-77.85
612.994	125.15
613.25	-24.85
613.505	-156.85
613.761	-99.85
614.017	-22.85
614.273	-42.85
614.529	-114.85
614.785	-159.85
615.04	-37.85
615.296	-45.85
615.552	-110.85
615.808	-67.85
616.063	5.15
616.319	-27.85
616.575	-134.85
616.831	-108.85
617.086	100.15
617.342	50.15
617.598	-65.85
617.854	-6.85
618.109	67.15
618.365	-94.85
618.621	-170.85
618.876	-65.85
619.132	31.15
619.388	-11.85
619.643	-169.85
619.899	-67.85
620.155	34.15
620.41	17.15
620.666	-116.85
620.921	-59.85
621.177	64.15
621.433	72.15
621.688	-40.85
621.944	-115.85
622.199	-49.85
622.455	-34.85
622.71	-145.85
622.966	-116.85
623.221	-103.85
623.477	-88.85
623.732	-74.85
623.988	-143.85
624.243	-2.85
624.499	-1.85
624.754	-166.85
625.01	-125.85
625.265	-40.85
625.521	59.15
625.776	-74.85
626.032	-43.85
626.287	-13.85
626.543	-72.85
626.798	-116.85
627.053	-73.85
627.309	-9.85
627.564	-80.85
627.82	-47.85
628.075	26.15
628.33	-27.85
628.586	-141.85
628.841	-250.85
629.096	-110.85
629.352	-27.85
629.607	-127.85
629.862	-145.85
630.118	-30.85
630.373	-83.85
630.628	-45.85
630.884	-149.85
631.139	-96.85
631.394	48.15
631.649	-28.85
631.905	-153.85
632.16	-52.85
632.415	130.15
632.67	-37.85
632.926	-174.85
633.181	-163.85
633.436	-27.85
633.691	-81.85
633.946	-208.85
634.202	-190.85
634.457	-27.85
634.712	-85.85
634.967	-182.85
635.222	-209.85
635.477	-96.85
635.733	-85.85
635.988	-194.85
636.243	-172.85
636.498	-15.85
636.753	-47.85
637.008	-176.85
637.263	-89.85
637.518	-24.85
637.773	-51.85
638.028	-98.85
638.283	-89.85
638.539	9.15
638.794	-27.85
639.049	-159.85
639.304	-161.85
639.559	-70.85
639.814	-85.85
640.069	-136.85
640.324	-114.85
640.579	-10.85
640.834	-22.85
641.089	-161.85
641.344	-83.85
641.598	129.15
641.853	27.15
642.108	-140.85
642.363	-193.85
642.618	-20.85
642.873	-80.85
643.128	-188.85
643.383	-128.85
643.638	-13.85
643.893	41.15
644.148	-42.85
644.402	-120.85
644.657	-2.85
644.912	-61.85
645.167	-117.85
645.422	-39.85
645.677	-41.85
645.931	12.15
646.186	7.15
646.441	-80.85
646.696	-91.85
646.951	-88.85
647.205	-118.85
647.46	-98.85
647.715	-72.85
647.97	82.15
648.224	207.15
648.479	-4.85
648.734	81.15
648.989	23.15
649.243	-70.85
649.498	-100.85
649.753	-59.85
650.007	-11.85
650.262	-82.85
650.517	-98.85
650.771	-53.85
651.026	-108.85
651.281	-213.85
651.535	-89.85
651.79	-48.85
652.045	-58.85
652.299	-133.85
652.554	-133.85
652.809	-24.85
653.063	122.15
653.318	-2.85
653.572	-92.85
653.827	53.15
654.081	-20.85
654.336	-179.85
654.591	-149.85
654.845	-37.85
655.1	-82.85
655.354	-125.85
655.609	-52.85
655.863	35.15
656.118	7.15
656.372	-127.85
656.627	-119.85
656.881	-16.85
657.136	-67.85
657.39	-176.85
657.645	-51.85
657.899	92.15
658.153	-29.85
658.408	-124.85
658.662	-63.85
658.917	-22.85
659.171	-126.85
659.426	-203.85
659.68	-124.85
659.934	-10.85
660.189	-50.85
660.443	-147.85
660.697	3.15
660.952	86.15
661.206	-67.85
661.46	-207.85
661.715	-126.85
661.969	-4.85
662.223	-41.85
662.478	-131.85
662.732	-57.85
662.986	-36.85
663.241	-45.85
663.495	-169.85
663.749	-108.85
664.003	15.15
664.258	-45.85
664.512	-124.85
664.766	-75.85
665.02	-18.85
665.275	-5.85
665.529	-165.85
665.783	-117.85
666.037	-31.85
666.291	-59.85
666.546	-126.85
666.8	-94.85
667.054	-101.85
667.308	-66.85
667.562	-235.85
667.816	-144.85
668.071	-33.85
668.325	-140.85
668.579	-143.85
668.833	-77.85
669.087	54.15
669.341	-38.85
669.595	-184.85
669.849	-116.85
670.103	-51.85
670.357	-61.85
670.612	-93.85
670.866	-124.85
671.12	-40.85
671.374	-56.85
671.628	-93.85
671.882	-139.85
672.136	-58.85
672.39	-46.85
672.644	-206.85
672.898	-59.85
673.152	85.15
673.406	-2.85
673.66	-89.85
673.914	-21.85
674.168	28.15
674.422	-47.85
674.675	-157.85
674.929	-84.85
675.183	33.15
675.437	-6.85
675.691	-90.85
675.945	-26.85
676.199	87.15
676.453	-25.85
676.707	-165.85
676.961	-154.85
677.214	-54.85
677.468	-46.85
677.722	-46.85
677.976	-70.85
678.23	-33.85
678.484	-21.85
678.737	-162.85
678.991	-109.85
679.245	-25.85
679.499	-64.85
679.753	-144.85
680.006	-73.85
680.26	25.15
680.514	19.15
680.768	-124.85
681.021	-46.85
681.275	-38.85
681.529	-50.85
681.783	-114.85
682.036	-83.85
682.29	-94.85
682.544	-74.85
682.797	-104.85
683.051	-130.85
683.305	-71.85
683.559	-62.85
683.812	-55.85
684.066	-65.85
684.32	-10.85
684.573	-59.85
684.827	-43.85
685.08	-28.85
685.334	53.15
685.588	-41.85
685.841	-166.85
686.095	-29.85
686.348	-14.85
686.602	-10.85
686.856	-42.85
687.109	-106.85
687.363	-63.85
687.616	-98.85
687.87	-221.85
688.123	-144.85
688.377	-40.85
688.63	-19.85
688.884	-10.85
689.137	85.15
689.391	82.15
689.644	-74.85
689.898	-162.85
690.151	-157.85
690.405	-30.85
690.658	-50.85
690.912	-107.85
691.165	-114.85
691.419	-64.85
691.672	-13.85
691.926	-94.85
692.179	-71.85
692.432	-26.85
692.686	-86.85
692.939	-195.85
693.193	-149.85
693.446	22.15
693.699	3.15
693.953	-21.85
694.206	-61.85
694.459	31.15
694.713	46.15
694.966	-110.85
695.219	-109.85
695.473	-23.85
695.726	-129.85
695.979	-182.85
696.233	-72.85
696.486	0.15
696.739	-33.85
696.992	-148.85
697.246	-15.85
697.499	58.15
697.752	-127.85
698.006	-153.85
698.259	-40.85
698.512	-44.85
698.765	-99.85
699.018	-136.85
699.272	-40.85
699.525	-74.85
699.778	-130.85
700.031	-154.85
700.284	-125.85
700.538	-26.85
700.791	-42.85
701.044	-100.85
701.297	-68.85
701.55	-30.85
701.803	-76.85
702.056	-175.85
702.31	-103.85
702.563	9.15
702.816	-78.85
703.069	-225.85
703.322	-136.85
703.575	-36.85
703.828	14.15
704.081	-100.85
704.334	-127.85
704.587	-68.85
704.84	-118.85
705.093	-123.85
705.346	-2.85
705.599	-13.85
705.853	2.15
706.106	37.15
706.359	265.15
706.612	11.15
706.865	32.15
707.118	-146.85
707.37	-77.85
707.623	31.15
707.876	-2.85
708.129	-55.85
708.382	31.15
708.635	108.15
708.888	-47.85
709.141	-153.85
709.394	-49.85
709.647	51.15
709.9	-78.85
710.153	-202.85
710.406	-74.85
710.658	35.15
710.911	-47.85
711.164	-186.85
711.417	-137.85
711.67	-79.85
711.923	-46.85
712.176	-168.85
712.428	-119.85
712.681	-46.85
712.934	-2.85
713.187	-96.85
713.44	-156.85
713.692	-17.85
713.945	-90.85
714.198	-183.85
714.451	-174.85
714.704	-26.85
714.956	0.15
715.209	18.15
715.462	-37.85
715.715	-9.85
715.967	-2.85
716.22	-149.85
716.473	-146.85
716.725	16.15
716.978	-35.85
717.231	-54.85
717.484	-22.85
717.736	-88.85
717.989	-141.85
718.242	-208.85
718.494	-106.85
718.747	24.15
718.999	-50.85
719.252	-26.85
719.505	-31.85
719.757	-20.85
720.01	-41.85
720.263	-118.85
720.515	-117.85
720.768	5.15
721.02	-7.85
721.273	-136.85
721.525	-168.85
721.778	-49.85
722.031	25.15
722.283	-132.85
722.536	-125.85
722.788	-34.85
723.041	-86.85
723.293	-162.85
723.546	-160.85
723.798	-40.85
724.051	18.15
724.303	-34.85
724.556	-26.85
724.808	112.15
725.061	29.15
725.313	-86.85
725.566	-78.85
725.818	-28.85
726.071	-65.85
726.323	-204.85
726.575	-110.85
726.828	28.15
727.08	42.15
727.333	-123.85
727.585	-104.85
727.837	-32.85
728.09	-31.85
728.342	-179.85
728.595	-77.85
728.847	90.15
729.099	-153.85
729.352	-154.85
729.604	-126.85
729.856	-49.85
730.109	-84.85
730.361	-163.85
730.613	-50.85
730.866	31.15
731.118	-98.85
731.37	-156.85
731.622	-139.85
731.875	-54.85
732.127	-17.85
732.379	-65.85
732.631	20.15
732.884	17.15
733.136	-74.85
733.388	-163.85
733.64	-106.85
733.893	45.15
734.145	-21.85
734.397	-152.85
734.649	-150.85
734.901	-54.85
735.154	-114.85
735.406	-202.85
735.658	-147.85
735.91	5.15
736.162	-48.85
736.414	-161.85
736.667	-71.85
736.919	-31.85
737.171	-118.85
737.423	-144.85
737.675	-92.85
737.927	22.15
738.179	-51.85
738.431	-86.85
738.684	-145.85
738.936	-74.85
739.188	-15.85
739.44	-198.85
739.692	-175.85
739.944	-128.85
740.196	-104.85
740.448	-157.85
740.7	-163.85
740.952	-93.85
741.204	-81.85
741.456	-184.85
741.708	-101.85
741.96	-103.85
742.212	-40.85
742.464	-31.85
742.716	-175.85
742.968	-80.85
743.22	-124.85
743.472	-203.85
743.724	-127.85
743.976	7.15
744.228	17.15
744.48	-223.85
744.732	-194.85
744.983	-19.85
745.235	-34.85
745.487	-111.85
745.739	-92.85
745.991	-108.85
746.243	-15.85
746.495	-172.85
746.747	-181.85
746.999	-77.85
747.25	-69.85
747.502	-104.85
747.754	-15.85
748.006	-82.85
748.258	22.15
748.51	47.15
748.761	-110.85
749.013	-46.85
749.265	43.15
749.517	25.15
749.768	49.15
750.02	52.15
750.272	-2.85
750.524	-159.85
750.776	-205.85
751.027	-10.85
751.279	30.15
751.531	-181.85
751.782	-100.85
752.034	15.15
752.286	-84.85
752.538	-214.85
752.789	-93.85
753.041	-1.85
753.293	-45.85
753.544	-120.85
753.796	-108.85
754.048	-11.85
754.299	-22.85
754.551	-77.85
754.803	-124.85
755.054	-118.85
755.306	-43.85
755.558	-134.85
755.809	-115.85
756.061	41.15
756.312	-74.85
756.564	-102.85
756.816	-82.85
757.067	-73.85
757.319	-84.85
757.57	-101.85
757.822	-36.85
758.073	29.15
758.325	-32.85
758.577	-161.85
758.828	-133.85
759.08	67.15
759.331	77.15
759.583	-117.85
759.834	-28.85
760.086	-48.85
760.337	-77.85
760.589	-151.85
760.84	-146.85
761.092	-53.85
761.343	-70.85
761.595	-211.85
761.846	-71.85
762.097	-33.85
762.349	-85.85
762.6	-247.85
762.852	-94.85
763.103	43.15
763.355	-80.85
763.606	-184.85
763.857	-25.85
764.109	75.15
764.36	-40.85
764.612	-118.85
764.863	-26.85
765.114	-8.85
765.366	-130.85
765.617	-223.85
765.868	-150.85
766.12	12.15
766.371	17.15
766.622	-171.85
766.874	-109.85
767.125	23.15
767.376	-98.85
767.628	-171.85
767.879	-120.85
768.13	-10.85
768.381	-29.85
768.633	-80.85
768.884	-75.85
769.135	-0.85
769.386	-18.85
769.638	-80.85
769.889	-87.85
770.14	-29.85
770.391	-130.85
770.643	-181.85
770.894	-180.85
771.145	-54.85
771.396	-124.85
771.647	-211.85
771.899	-89.85
772.15	-11.85
772.401	-49.85
772.652	-176.85
772.903	-151.85
773.154	190.15
773.406	433.15
773.657	-110.85
773.908	-123.85
774.159	-29.85
774.41	-16.85
774.661	-144.85
774.912	-99.85
775.163	68.15
775.414	69.15
775.666	-175.85
775.917	-152.85
776.168	-99.85
776.419	-101.85
776.67	-180.85
776.921	-167.85
777.172	-67.85
777.423	-39.85
777.674	-30.85
777.925	-43.85
778.176	-117.85
778.427	-97.85
778.678	-174.85
778.929	-155.85
779.18	-51.85
779.431	-130.85
779.682	-123.85
779.933	-90.85
780.184	-52.85
780.435	-78.85
780.686	-103.85
780.937	-46.85
781.188	-22.85
781.439	80.15
781.69	-1.85
781.941	-74.85
782.191	-40.85
782.442	-54.85
782.693	-150.85
782.944	-158.85
783.195	-60.85
783.446	-60.85
783.697	-45.85
783.948	-139.85
784.199	-104.85
784.449	-139.85
784.7	-123.85
784.951	-101.85
785.202	47.15
785.453	25.15
785.704	-172.85
785.954	-183.85
786.205	-108.85
786.456	-154.85
786.707	-244.85
786.958	-184.85
787.208	-82.85
787.459	-119.85
787.71	-97.85
787.961	-114.85
788.211	-63.85
788.462	-76.85
788.713	-125.85
788.964	-133.85
789.214	-29.85
789.465	-26.85
789.716	-66.85
789.967	-77.85
790.217	-99.85
790.468	-132.85
790.719	-198.85
790.969	-160.85
791.22	-110.85
791.471	-36.85
791.721	-18.85
791.972	-107.85
792.223	-26.85
792.473	-113.85
792.724	-139.85
792.975	-149.85
793.225	-55.85
793.476	-103.85
793.726	-179.85
793.977	-70.85
794.228	58.15
794.478	-52.85
794.729	-145.85
794.979	-50.85
795.23	-13.85
795.481	-73.85
795.731	-171.85
795.982	-97.85
796.232	-107.85
796.483	-150.85
796.733	-189.85
796.984	-138.85
797.234	-52.85
797.485	-40.85
797.735	-203.85
797.986	-159.85
798.236	-39.85
798.487	-92.85
798.737	-92.85
798.988	-24.85
799.238	22.15
799.489	-92.85
799.739	-172.85
799.99	-84.85
800.24	-1.85
800.491	37.15
800.741	-109.85
800.991	-164.85
801.242	-89.85
801.492	-60.85
801.743	-126.85
801.993	-12.85
802.244	90.15
802.494	-61.85
802.744	-88.85
802.995	-68.85
803.245	-51.85
803.495	-83.85
803.746	-142.85
803.996	-56.85
804.246	-67.85
804.497	-35.85
804.747	-164.85
804.997	-104.85
805.248	-91.85
805.498	-122.85
805.748	-85.85
805.999	-186.85
806.249	-107.85
806.499	-118.85
806.75	-221.85
807	-193.85
807.25	-77.85
807.5	-117.85
807.751	-120.85
808.001	-61.85
808.251	-38.85
808.501	34.15
808.752	12.15
809.002	-49.85
809.252	-59.85
809.502	-110.85
809.752	-134.85
810.003	-164.85
810.253	-94.85
810.503	-74.85
810.753	-47.85
811.003	-26.85
811.254	0.15
811.504	-78.85
811.754	-105.85
812.004	-81.85
812.254	143.15
812.504	-29.85
812.754	-125.85
813.005	-61.85
813.255	29.15
813.505	-50.85
813.755	-152.85
814.005	-76.85
814.255	-54.85
814.505	-96.85
814.755	-208.85
815.005	-162.85
815.255	-35.85
815.505	-85.85
815.756	-40.85
816.006	-52.85
816.256	-100.85
816.506	-155.85
816.756	-210.85
817.006	-157.85
817.256	-57.85
817.506	-74.85
817.756	-125.85
818.006	-93.85
818.256	-46.85
818.506	-62.85
818.756	-187.85
819.006	-142.85
819.256	-45.85
819.506	-80.85
819.756	-155.85
820.006	-79.85
820.255	-26.85
820.505	-42.85
820.755	-172.85
821.005	-136.85
821.255	-11.85
821.505	-57.85
821.755	-141.85
822.005	-45.85
822.255	20.15
822.505	-70.85
822.755	-60.85
823.004	-170.85
823.254	-143.85
823.504	-69.85
823.754	-52.85
824.004	-134.85
824.254	-34.85
824.504	-56.85
824.753	-24.85
825.003	-33.85
825.253	6.15
825.503	-112.85
825.753	-136.85
826.002	-60.85
826.252	137.15
826.502	-69.85
826.752	-132.85
827.002	-99.85
827.251	-2.85
827.501	-87.85
827.751	-166.85
828.001	-124.85
828.25	-12.85
828.5	-153.85
828.75	-176.85
829	-93.85
829.249	41.15
829.499	-117.85
829.749	-139.85
829.998	-58.85
830.248	-31.85
830.498	-142.85
830.748	-141.85
830.997	-76.85
831.247	8.15
831.497	1.15
831.746	-93.85
831.996	-10.85
832.246	98.15
832.495	103.15
832.745	-146.85
832.994	-125.85
833.244	30.15
833.494	-89.85
833.743	-185.85
833.993	-118.85
834.243	-30.85
834.492	-54.85
834.742	-83.85
834.991	-94.85
835.241	79.15
835.49	-67.85
835.74	-202.85
835.99	-127.85
836.239	-12.85
836.489	2.15
836.738	-106.85
836.988	-216.85
837.237	-83.85
837.487	19.15
837.736	-89.85
837.986	-125.85
838.235	-49.85
838.485	-91.85
838.734	-131.85
838.984	-42.85
839.233	-62.85
839.483	-152.85
839.732	-189.85
839.982	-88.85
840.231	-21.85
840.481	-25.85
840.73	-147.85
840.979	-84.85
841.229	-78.85
841.478	-78.85
841.728	-190.85
841.977	-208.85
842.227	-147.85
842.476	-180.85
842.725	-214.85
842.975	-159.85
843.224	-29.85
843.474	11.15
843.723	-104.85
843.972	-113.85
844.222	-66.85
844.471	-14.85
844.72	-126.85
844.97	-123.85
845.219	-29.85
845.468	-38.85
845.718	-94.85
845.967	-69.85
846.216	-13.85
846.466	30.15
846.715	-118.85
846.964	-93.85
847.214	-105.85
847.463	-142.85
847.712	-97.85
847.961	-134.85
848.211	-62.85
848.46	-77.85
848.709	-121.85
848.958	-141.85
849.208	-79.85
849.457	-86.85
849.706	-71.85
849.955	-105.85
850.205	-130.85
850.454	20.15
850.703	59.15
850.952	-9.85
851.201	25.15
851.451	-44.85
851.7	-32.85
851.949	-158.85
852.198	-65.85
852.447	-86.85
852.696	-162.85
852.946	-122.85
853.195	-6.85
853.444	-8.85
853.693	-187.85
853.942	-190.85
854.191	-74.85
854.44	-60.85
854.689	-102.85
854.939	-146.85
855.188	-159.85
855.437	-138.85
855.686	-141.85
855.935	-104.85
856.184	-37.85
856.433	15.15
856.682	-55.85
856.931	-62.85
857.18	-32.85
857.429	-108.85
857.678	-153.85
857.927	-106.85
858.176	-58.85
858.425	-126.85
858.674	-201.85
858.924	-96.85
859.173	-72.85
859.422	-53.85
859.671	-196.85
859.92	-125.85
860.169	-83.85
860.417	-40.85
860.666	-93.85
860.915	-138.85
861.164	-92.85
861.413	-134.85
861.662	-180.85
861.911	-133.85
862.16	-0.85
862.409	-40.85
862.658	-206.85
862.907	-170.85
863.156	-56.85
863.405	-68.85
863.654	-164.85
863.903	-191.85
864.151	-101.85
864.4	-69.85
864.649	-112.85
864.898	-66.85
865.147	-28.85
865.396	-18.85
865.645	-152.85
865.894	-93.85
866.142	28.15
866.391	-73.85
866.64	-186.85
866.889	-76.85
867.138	93.15
867.387	-21.85
867.635	-143.85
867.884	-78.85
868.133	10.15
868.382	-62.85
868.631	-177.85
868.879	-176.85
869.128	-66.85
869.377	-69.85
869.626	-113.85
869.874	-105.85
870.123	-10.85
870.372	-54.85
870.621	-198.85
870.869	-143.85
871.118	-38.85
871.367	-48.85
871.616	-177.85
871.864	-65.85
872.113	-22.85
872.362	-55.85
872.61	-124.85
872.859	-56.85
873.108	16.15
873.357	-93.85
873.605	-190.85
873.854	-158.85
874.103	-111.85
874.351	-113.85
874.6	-132.85
874.848	-92.85
875.097	-29.85
875.346	-38.85
875.594	-147.85
875.843	-44.85
876.092	114.15
876.34	-16.85
876.589	-139.85
876.837	-229.85
877.086	-132.85
877.335	-50.85
877.583	-112.85
877.832	-64.85
878.08	60.15
878.329	-44.85
878.578	-131.85
878.826	-99.85
879.075	-19.85
879.323	-21.85
879.572	-111.85
879.82	14.15
880.069	-33.85
880.317	-12.85
880.566	-136.85
880.814	-34.85
881.063	73.15
881.311	-39.85
881.56	-3.85
881.808	-106.85
882.057	-31.85
882.305	-38.85
882.554	-31.85
882.802	-134.85
883.051	-81.85
883.299	-52.85
883.548	-115.85
883.796	-25.85
884.045	-19.85
884.293	-101.85
884.541	-205.85
884.79	-218.85
885.038	-98.85
885.287	-93.85
885.535	-76.85
885.783	-52.85
886.032	-104.85
886.28	-129.85
886.529	-172.85
886.777	-102.85
887.025	51.15
887.274	-80.85
887.522	-141.85
887.77	-114.85
888.019	-87.85
888.267	-129.85
888.516	-200.85
888.764	-159.85
889.012	-74.85
889.261	-66.85
889.509	-152.85
889.757	-143.85
890.005	-84.85
890.254	-147.85
890.502	-115.85
890.75	104.15
890.999	88.15
891.247	-4.85
891.495	-46.85
891.743	-76.85
891.992	67.15
892.24	-46.85
892.488	-166.85
892.737	-139.85
892.985	-32.85
893.233	-44.85
893.481	-101.85
893.729	-115.85
893.978	45.15
894.226	48.15
894.474	-112.85
894.722	-127.85
894.97	-74.85
895.219	-97.85
895.467	-68.85
895.715	-30.85
895.963	-62.85
896.211	-131.85
896.46	-212.85
896.708	-84.85
896.956	8.15
897.204	70.15
897.452	-30.85
897.7	-98.85
897.948	-25.85
898.197	-81.85
898.445	-128.85
898.693	-110.85
898.941	-37.85
899.189	-42.85
899.437	-98.85
899.685	-3.85
899.933	-48.85
900.181	-45.85
900.43	-126.85
900.678	-115.85
900.926	-43.85
901.174	-84.85
901.422	-120.85
901.67	-112.85
901.918	-31.85
902.166	-66.85
902.414	-191.85
902.662	-131.85
902.91	-18.85
903.158	-50.85
903.406	-116.85
903.654	-108.85
903.902	-64.85
904.15	-97.85
904.398	-208.85
904.646	-110.85
904.894	-12.85
905.142	0.15
905.39	-67.85
905.638	-133.85
905.886	-82.85
906.134	-82.85
906.382	-77.85
906.63	-118.85
906.878	-30.85
907.126	-64.85
907.374	-138.85
907.622	-131.85
907.869	-13.85
908.117	-14.85
908.365	-98.85
908.613	-114.85
908.861	-100.85
909.109	-144.85
909.357	-173.85
909.605	-105.85
909.853	-30.85
910.1	-95.85
910.348	-245.85
910.596	-200.85
910.844	-8.85
911.092	32.15
911.34	-93.85
911.588	-93.85
911.835	-28.85
912.083	-69.85
912.331	-67.85
912.579	-50.85
912.827	147.15
913.075	10.15
913.322	-149.85
913.57	-122.85
913.818	15.15
914.066	-44.85
914.313	-117.85
914.561	-37.85
914.809	-21.85
915.057	-64.85
915.305	-88.85
915.552	-101.85
915.8	-3.85
916.048	-80.85
916.296	-160.85
916.543	-59.85
916.791	43.15
917.039	-48.85
917.286	-164.85
917.534	-138.85
917.782	-10.85
918.03	-89.85
918.277	-204.85
918.525	-185.85
918.773	-62.85
919.02	-97.85
919.268	-147.85
919.516	-112.85
919.763	-109.85
920.011	-89.85
920.259	-183.85
920.506	-95.85
920.754	1.15
921.002	-20.85
921.249	-65.85
921.497	-80.85
921.745	-47.85
921.992	-38.85
922.24	-188.85
922.487	-56.85
922.735	108.15
922.983	21.15
923.23	-61.85
923.478	-131.85
923.725	-39.85
923.973	-17.85
924.221	-44.85
924.468	-15.85
924.716	-24.85
924.963	-54.85
925.211	-114.85
925.458	-40.85
925.706	61.15
925.953	100.15
926.201	-92.85
926.448	-121.85
926.696	-21.85
926.944	-49.85
927.191	-111.85
927.439	-94.85
927.686	-69.85
927.934	-48.85
928.181	-139.85
928.429	-144.85
928.676	-85.85
928.923	-127.85
929.171	-173.85
929.418	-33.85
929.666	14.15
929.913	11.15
930.161	-181.85
930.408	-142.85
930.656	-50.85
930.903	-31.85
931.151	-153.85
931.398	-105.85
931.645	18.15
931.893	-72.85
932.14	-104.85
932.388	-81.85
932.635	59.15
932.882	97.15
933.13	-16.85
933.377	-84.85
933.625	-17.85
933.872	-88.85
934.119	-168.85
934.367	-109.85
934.614	-101.85
934.861	-113.85
935.109	-105.85
935.356	-35.85
935.603	8.15
935.851	-74.85
936.098	-153.85
936.345	-34.85
936.593	14.15
936.84	-50.85
937.087	-188.85
937.335	-136.85
937.582	-54.85
937.829	-27.85
938.077	-53.85
938.324	-80.85
938.571	-15.85
938.818	-84.85
939.066	-132.85
939.313	-157.85
939.56	-15.85
939.807	-14.85
940.055	-146.85
940.302	-96.85
940.549	67.15
940.796	-19.85
941.044	-82.85
941.291	-68.85
941.538	92.15
941.785	-32.85
942.033	-79.85
942.28	-36.85
942.527	-11.85
942.774	-40.85
943.021	-175.85
943.269	-122.85
943.516	-19.85
943.763	-9.85
944.01	-79.85
944.257	-9.85
944.504	48.15
944.752	-2.85
944.999	-49.85
945.246	-124.85
945.493	-54.85
945.74	-54.85
945.987	-127.85
946.234	-48.85
946.482	39.15
946.729	-82.85
946.976	-129.85
947.223	-109.85
947.47	50.15
947.717	18.15
947.964	27.15
948.211	-34.85
948.458	31.15
948.705	-31.85
948.952	-129.85
949.2	-58.85
949.447	74.15
949.694	65.15
949.941	-92.85
950.188	-108.85
950.435	-88.85
950.682	-56.85
950.929	-165.85
951.176	-118.85
951.423	47.15
951.67	10.15
951.917	-46.85
952.164	-35.85
952.411	17.15
952.658	58.15
952.905	-76.85
953.152	-142.85
953.399	-19.85
953.646	-14.85
953.893	-118.85
954.14	-93.85
954.387	-28.85
954.634	-54.85
954.881	-99.85
955.128	-42.85
955.375	-57.85
955.622	-60.85
955.869	-60.85
956.115	-74.85
956.362	-8.85
956.609	-35.85
956.856	-107.85
957.103	-97.85
957.35	9.15
957.597	-3.85
957.844	-103.85
958.091	-82.85
958.338	15.15
958.585	-38.85
958.831	-206.85
959.078	-122.85
959.325	26.15
959.572	-84.85
959.819	-163.85
960.066	-189.85
960.313	-58.85
960.559	-80.85
960.806	-205.85
961.053	-145.85
961.3	0.15
961.547	25.15
961.794	-174.85
962.04	-12.85
962.287	27.15
962.534	-108.85
962.781	-139.85
963.028	-67.85
963.274	52.15
963.521	-44.85
963.768	-130.85
964.015	-80.85
964.262	82.15
964.508	-65.85
964.755	-161.85
965.002	-136.85
965.249	-84.85
965.495	-146.85
965.742	-185.85
965.989	-153.85
966.236	-19.85
966.482	-88.85
966.729	-149.85
966.976	-169.85
967.222	-98.85
967.469	-91.85
967.716	-150.85
967.963	-149.85
968.209	-62.85
968.456	-92.85
968.703	-198.85
968.949	-108.85
969.196	74.15
969.443	76.15
969.689	-152.85
969.936	-172.85
970.183	-65.85
970.429	-128.85
970.676	-177.85
970.923	-117.85
971.169	-44.85
971.416	-110.85
971.663	-149.85
971.909	-98.85
972.156	-19.85
972.402	-21.85
972.649	-89.85
972.896	-80.85
973.142	-63.85
973.389	-35.85
973.635	-126.85
973.882	-19.85
974.129	60.15
974.375	-74.85
974.622	-166.85
974.868	-145.85
975.115	-56.85
975.361	-104.85
975.608	-123.85
975.855	-2.85
976.101	25.15
976.348	-71.85
976.594	-126.85
976.841	-67.85
977.087	-61.85
977.334	-22.85
977.58	-169.85
977.827	-165.85
978.073	-12.85
978.32	-50.85
978.566	-175.85
978.813	-92.85
979.059	-57.85
979.306	-74.85
979.552	-170.85
979.799	-80.85
980.045	-80.85
980.292	-71.85
980.538	-151.85
980.785	-154.85
981.031	-123.85
981.278	-128.85
981.524	-191.85
981.771	-47.85
982.017	88.15
982.263	-4.85
982.51	-130.85
982.756	-69.85
983.003	-16.85
983.249	-68.85
983.495	-144.85
983.742	-147.85
983.988	-65.85
984.235	-50.85
984.481	-156.85
984.727	-132.85
984.974	-12.85
985.22	-28.85
985.467	-96.85
985.713	-105.85
985.959	0.15
986.206	-14.85
986.452	-100.85
986.698	-49.85
986.945	-49.85
987.191	2.15
987.437	10.15
987.684	-47.85
987.93	108.15
988.176	33.15
988.423	-160.85
988.669	-92.85
988.915	82.15
989.162	-77.85
989.408	-175.85
989.654	-97.85
989.901	-71.85
990.147	-78.85
990.393	-58.85
990.639	-9.85
990.886	4.15
991.132	59.15
991.378	-4.85
991.625	113.15
991.871	102.15
992.117	29.15
992.363	-38.85
992.61	-23.85
992.856	89.15
993.102	-66.85
993.348	-129.85
993.594	-116.85
993.841	-58.85
994.087	77.15
994.333	-56.85
994.579	-67.85
994.826	-31.85
995.072	-20.85
995.318	-214.85
995.564	-154.85
995.81	-24.85
996.057	-74.85
996.303	-174.85
996.549	-158.85
996.795	-59.85
997.041	-90.85
997.287	-106.85
997.534	-103.85
997.78	-57.85
998.026	-40.85
998.272	-158.85
998.518	-159.85
998.764	-6.85
999.01	14.15
999.256	-94.85
999.503	-137.85
999.749	-117.85
999.995	-149.85
1000.241	-161.85
1000.487	-75.85
1000.733	-45.85
1000.979	-88.85
1001.225	-115.85
1001.471	-57.85
1001.718	1.15
1001.964	31.15
1002.21	-145.85
1002.456	-113.85
1002.702	43.15
1002.948	-39.85
1003.194	-121.85
1003.44	-141.85
1003.686	-64.85
1003.932	-115.85
1004.178	-155.85
1004.424	-98.85
1004.67	42.15
1004.916	26.15
1005.162	-77.85
1005.408	-120.85
1005.654	16.15
1005.9	-143.85
1006.146	-198.85
1006.392	-131.85
1006.638	-48.85
1006.884	-65.85
1007.13	-146.85
1007.376	-165.85
1007.622	6.15
1007.868	14.15
1008.114	-111.85
1008.36	-50.85
1008.606	-8.85
1008.852	4.15
1009.098	-48.85
1009.344	-20.85
1009.59	-50.85
1009.836	-174.85
1010.082	-236.85
1010.328	-146.85
1010.574	-54.85
1010.82	-130.85
1011.065	-216.85
1011.311	-196.85
1011.557	-77.85
1011.803	-114.85
1012.049	-172.85
1012.295	-113.85
1012.541	-78.85
1012.787	-83.85
1013.033	-205.85
1013.278	-220.85
1013.524	-69.85
1013.77	-0.85
1014.016	-106.85
1014.262	-101.85
1014.508	13.15
1014.754	-123.85
1015	-153.85
1015.245	-5.85
1015.491	24.15
1015.737	-12.85
1015.983	-150.85
1016.229	-185.85
1016.475	-66.85
1016.72	54.15
1016.966	85.15
1017.212	-32.85
1017.458	34.15
1017.704	-52.85
1017.949	-175.85
1018.195	-7.85
1018.441	103.15
1018.687	40.15
1018.933	-109.85
1019.178	-111.85
1019.424	41.15
1019.67	74.15
1019.916	-147.85
1020.161	-113.85
1020.407	-38.85
1020.653	-84.85
1020.899	-153.85
1021.144	-82.85
1021.39	-4.85
1021.636	-114.85
1021.882	-212.85
1022.127	-100.85
1022.373	61.15
1022.619	12.15
1022.865	-81.85
1023.11	-89.85
1023.356	27.15
1023.602	-56.85
1023.847	-106.85
1024.093	-53.85
1024.339	-84.85
1024.584	-109.85
1024.83	-132.85
1025.076	-117.85
1025.321	19.15
1025.567	-15.85
1025.813	-149.85
1026.058	-66.85
1026.304	1.15
1026.55	-82.85
1026.795	-96.85
1027.041	-84.85
1027.287	-32.85
1027.532	-12.85
1027.778	-26.85
1028.024	-61.85
1028.269	-31.85
1028.515	-97.85
1028.76	-151.85
1029.006	-78.85
1029.252	29.15
1029.497	-39.85
1029.743	-60.85
1029.989	-116.85
1030.234	23.15
1030.48	87.15
1030.725	-105.85
1030.971	-89.85
1031.216	36.15
1031.462	-33.85
1031.708	-167.85
1031.953	-138.85
1032.199	-41.85
1032.444	-19.85
1032.69	-78.85
1032.935	-96.85
1033.181	46.15
1033.426	-76.85
1033.672	-233.85
1033.918	-167.85
1034.163	-65.85
1034.409	-62.85
1034.654	-122.85
1034.9	-44.85
1035.145	17.15
1035.391	-46.85
1035.636	-163.85
1035.882	-72.85
1036.127	-82.85
1036.373	-114.85
1036.618	-199.85
1036.864	-95.85
1037.109	53.15
1037.355	-54.85
1037.6	-125.85
1037.845	-81.85
1038.091	99.15
1038.336	54.15
1038.582	77.15
1038.827	148.15
1039.073	-0.85
1039.318	-97.85
1039.564	-186.85
1039.809	-115.85
1040.055	59.15
1040.3	39.15
1040.545	-105.85
1040.791	-117.85
1041.036	-47.85
1041.282	-12.85
1041.527	37.15
1041.772	-149.85
1042.018	-86.85
1042.263	-40.85
1042.509	-195.85
1042.754	-149.85
1042.999	-27.85
1043.245	-40.85
1043.49	-204.85
1043.736	-129.85
1043.981	-46.85
1044.226	-34.85
1044.472	-39.85
1044.717	-34.85
1044.962	49.15
1045.208	-36.85
1045.453	-265.85
1045.698	-172.85
1045.944	39.15
1046.189	-14.85
1046.434	-125.85
1046.68	-95.85
1046.925	91.15
1047.17	-81.85
1047.416	-248.85
1047.661	-148.85
1047.906	-4.85
1048.152	-14.85
1048.397	-91.85
1048.642	-105.85
1048.887	71.15
1049.133	83.15
1049.378	-102.85
1049.623	-123.85
1049.869	6.15
1050.114	-53.85
1050.359	-140.85
1050.604	-60.85
1050.85	94.15
1051.095	-50.85
1051.34	-137.85
1051.585	-74.85
1051.831	102.15
1052.076	-50.85
1052.321	-245.85
1052.566	-132.85
1052.812	60.15
1053.057	-35.85
1053.302	-107.85
1053.547	-25.85
1053.792	27.15
1054.038	31.15
1054.283	-145.85
1054.528	-74.85
1054.773	-19.85
1055.018	-19.85
1055.264	-134.85
1055.509	-172.85
1055.754	-25.85
1055.999	-89.85
1056.244	-172.85
1056.49	-106.85
1056.735	-14.85
1056.98	-63.85
1057.225	-166.85
1057.47	0.15
1057.715	-59.85
1057.96	-141.85
1058.206	-170.85
1058.451	-62.85
1058.696	70.15
1058.941	4.15
1059.186	-174.85
1059.431	-172.85
1059.676	33.15
1059.922	-6.85
1060.167	86.15
1060.412	264.15
1060.657	53.15
1060.902	-17.85
1061.147	-203.85
1061.392	-116.85
1061.637	17.15
1061.882	-60.85
1062.127	-202.85
1062.373	-189.85
1062.618	85.15
1062.863	112.15
1063.108	-97.85
1063.353	-149.85
1063.598	-45.85
1063.843	-70.85
1064.088	-155.85
1064.333	-155.85
1064.578	-1.85
1064.823	13.15
1065.068	-212.85
1065.313	-118.85
1065.558	10.15
1065.803	-2.85
1066.048	-185.85
1066.293	-159.85
1066.538	55.15
1066.783	-18.85
1067.028	-195.85
1067.273	-184.85
1067.518	-0.85
1067.763	-56.85
1068.008	-220.85
1068.253	-138.85
1068.498	29.15
1068.743	-25.85
1068.988	-176.85
1069.233	-169.85
1069.478	24.15
1069.723	101.15
1069.968	-100.85
1070.213	-60.85
1070.458	40.15
1070.703	-33.85
1070.948	-219.85
1071.193	-116.85
1071.438	20.15
1071.683	61.15
1071.928	-61.85
1072.173	-85.85
1072.418	-19.85
1072.663	-55.85
1072.908	-180.85
1073.152	-105.85
1073.397	57.15
1073.642	-48.85
1073.887	-107.85
1074.132	-12.85
1074.377	-21.85
1074.622	-36.85
1074.867	-152.85
1075.112	-81.85
1075.357	101.15
1075.601	-43.85
1075.846	-97.85
1076.091	-8.85
1076.336	51.15
1076.581	-97.85
1076.826	-193.85
1077.071	-103.85
1077.315	147.15
1077.56	84.15
1077.805	-134.85
1078.05	-100.85
1078.295	-32.85
1078.54	-68.85
1078.785	-194.85
1079.029	-125.85
1079.274	55.15
1079.519	-82.85
1079.764	-202.85
1080.009	-76.85
1080.253	4.15
1080.498	-98.85
1080.743	-238.85
1080.988	-73.85
1081.233	128.15
1081.478	62.15
1081.722	-123.85
1081.967	-21.85
1082.212	139.15
1082.457	28.15
1082.701	-128.85
1082.946	-99.85
1083.191	46.15
1083.436	-66.85
1083.681	-225.85
1083.925	-117.85
1084.17	-12.85
1084.415	26.15
1084.66	-191.85
1084.904	-102.85
1085.149	-17.85
1085.394	-49.85
1085.639	-209.85
1085.883	-108.85
1086.128	133.15
1086.373	145.15
1086.617	-91.85
1086.862	-157.85
1087.107	-43.85
1087.352	-85.85
1087.596	-163.85
1087.841	-33.85
1088.086	18.15
1088.33	-5.85
1088.575	-247.85
1088.82	-108.85
1089.064	61.15
1089.309	-94.85
1089.554	-196.85
1089.798	-161.85
1090.043	35.15
1090.288	-37.85
1090.533	-209.85
1090.777	-124.85
1091.022	20.15
1091.266	33.15
1091.511	-127.85
1091.756	-49.85
1092	114.15
1092.245	101.15
1092.49	-168.85
1092.734	-117.85
1092.979	71.15
1093.224	-34.85
1093.468	-186.85
1093.713	-129.85
1093.957	15.15
1094.202	-59.85
1094.447	-232.85
1094.691	-101.85
1094.936	33.15
1095.181	-13.85
1095.425	-192.85
1095.67	-164.85
1095.914	10.15
1096.159	0.15
1096.403	-150.85
1096.648	-62.85
1096.893	39.15
1097.137	-92.85
1097.382	-218.85
1097.626	-137.85
1097.871	10.15
1098.115	-38.85
1098.36	-201.85
1098.605	-83.85
1098.849	-18.85
1099.094	-118.85
1099.338	-198.85
1099.583	-92.85
1099.827	137.15
1100.072	37.15
1100.316	-140.85
1100.561	-104.85
1100.805	52.15
1101.05	14.15
1101.294	-181.85
1101.539	-164.85
1101.783	-3.85
1102.028	9.15
1102.273	-139.85
1102.517	-86.85
1102.761	42.15
1103.006	-69.85
1103.25	-272.85
1103.495	-155.85
1103.739	67.15
1103.984	99.15
1104.228	-110.85
1104.473	-31.85
1104.717	27.15
1104.962	10.15
1105.206	-117.85
1105.451	-155.85
1105.695	-2.85
1105.94	-27.85
1106.184	-167.85
1106.429	-109.85
1106.673	10.15
1106.917	61.15
1107.162	-163.85
1107.406	-23.85
1107.651	133.15
1107.895	-95.85
1108.14	-198.85
1108.384	-81.85
1108.628	134.15
1108.873	123.15
1109.117	-131.85
1109.362	-119.85
1109.606	-24.85
1109.85	-18.85
1110.095	-159.85
1110.339	-93.85
1110.584	102.15
1110.828	42.15
1111.072	-91.85
1111.317	-121.85
1111.561	-18.85
1111.806	-31.85
1112.05	-165.85
1112.294	-72.85
1112.539	31.15
1112.783	-10.85
1113.027	-118.85
1113.272	-95.85
1113.516	-22.85
1113.76	-49.85
1114.005	-141.85
1114.249	-74.85
1114.493	76.15
1114.738	94.15
1114.982	-34.85
1115.226	-94.85
1115.471	1.15
1115.715	-0.85
1115.959	-197.85
1116.204	-188.85
1116.448	-26.85
1116.692	-96.85
1116.937	-161.85
1117.181	-19.85
1117.425	-21.85
1117.67	-74.85
1117.914	-151.85
1118.158	-90.85
1118.402	131.15
1118.647	59.15
1118.891	-86.85
1119.135	-27.85
1119.38	127.15
1119.624	41.15
1119.868	-128.85
1120.112	-136.85
1120.357	-44.85
1120.601	-121.85
1120.845	-212.85
1121.089	-149.85
1121.334	21.15
