Data from HR4C21111__37__10-11-56-870.txt Node

Date: Mon Feb 22 10:11:56 IST 2021
User: Kapil
Spectrometer: HR4C2111
Trigger mode: 4
Integration Time (sec): 2.300000E0
Scans to average: 1
Electric dark correction enabled: true
Nonlinearity correction enabled: false
Boxcar width: 0
XAxis mode: Wavelengths
Number of Pixels in Spectrum: 3648
>>>>>Begin Spectral Data<<<<<
189.472	-443.85
189.745	-443.85
190.017	-443.85
190.289	-463.85
190.561	-296.85
190.834	-23.85
191.106	-120.85
191.378	19.15
191.65	8.15
191.923	-147.85
192.195	-112.85
192.467	126.15
192.739	110.15
193.011	-23.85
193.284	94.15
193.556	185.15
193.828	-15.85
194.1	-97.85
194.372	-114.85
194.644	55.15
194.916	71.15
195.188	-149.85
195.46	-69.85
195.732	48.15
196.004	-15.85
196.276	-97.85
196.548	-59.85
196.82	81.15
197.092	71.15
197.364	-129.85
197.636	-88.85
197.908	25.15
198.18	-42.85
198.452	-89.85
198.724	-37.85
198.996	60.15
199.268	73.15
199.54	-28.85
199.811	-109.85
200.083	106.15
200.355	26.15
200.627	-189.85
200.899	-68.85
201.171	43.15
201.442	-63.85
201.714	-178.85
201.986	-87.85
202.258	58.15
202.529	117.15
202.801	9.15
203.073	83.15
203.345	187.15
203.616	11.15
203.888	-143.85
204.16	-156.85
204.431	78.15
204.703	-0.85
204.974	-144.85
205.246	-21.85
205.518	159.15
205.789	-12.85
206.061	-132.85
206.332	-105.85
206.604	28.15
206.876	98.15
207.147	127.15
207.419	17.15
207.69	123.15
207.962	-28.85
208.233	-175.85
208.505	12.15
208.776	172.15
209.047	88.15
209.319	-129.85
209.59	-85.85
209.862	138.15
210.133	44.15
210.404	-143.85
210.676	-94.85
210.947	90.15
211.219	64.15
211.49	-128.85
211.761	-52.85
212.033	24.15
212.304	-33.85
212.575	-181.85
212.846	-92.85
213.118	17.15
213.389	-57.85
213.66	-119.85
213.931	-39.85
214.203	35.15
214.474	-33.85
214.745	-120.85
215.016	146.15
215.287	451.15
215.559	60.15
215.83	-117.85
216.101	-80.85
216.372	-11.85
216.643	74.15
216.914	18.15
217.185	-63.85
217.456	154.15
217.727	21.15
217.998	-148.85
218.269	-33.85
218.54	45.15
218.811	-3.85
219.082	-88.85
219.353	-72.85
219.624	-11.85
219.895	-25.85
220.166	-131.85
220.437	-117.85
220.708	89.15
220.979	-11.85
221.25	-135.85
221.521	-83.85
221.792	27.15
222.063	85.15
222.334	26.15
222.604	179.15
222.875	163.15
223.146	88.15
223.417	-174.85
223.688	-34.85
223.958	135.15
224.229	-43.85
224.5	-183.85
224.771	-63.85
225.041	85.15
225.312	49.15
225.583	-105.85
225.854	-69.85
226.124	92.15
226.395	-18.85
226.666	-136.85
226.936	-107.85
227.207	69.15
227.478	-40.85
227.748	-110.85
228.019	59.15
228.289	260.15
228.56	-37.85
228.831	-51.85
229.101	46.15
229.372	67.15
229.642	-17.85
229.913	-165.85
230.183	-145.85
230.454	-1.85
230.724	4.15
230.995	-101.85
231.265	-70.85
231.536	67.15
231.806	50.15
232.076	-99.85
232.347	-113.85
232.617	32.15
232.888	16.15
233.158	-78.85
233.428	-134.85
233.699	-18.85
233.969	-55.85
234.239	-162.85
234.51	-98.85
234.78	34.15
235.05	-18.85
235.321	-120.85
235.591	-77.85
235.861	45.15
236.131	-47.85
236.402	-195.85
236.672	-97.85
236.942	49.15
237.212	54.15
237.483	-52.85
237.753	11.15
238.023	163.15
238.293	18.15
238.563	-76.85
238.833	-91.85
239.103	73.15
239.374	-18.85
239.644	-137.85
239.914	-26.85
240.184	127.15
240.454	-3.85
240.724	-161.85
240.994	-75.85
241.264	19.15
241.534	70.15
241.804	-5.85
242.074	-95.85
242.344	-51.85
242.614	-61.85
242.884	-178.85
243.154	-131.85
243.424	43.15
243.694	71.15
243.964	-92.85
244.234	-78.85
244.503	120.15
244.773	8.15
245.043	-228.85
245.313	-145.85
245.583	118.15
245.853	87.15
246.123	-172.85
246.392	-111.85
246.662	-16.85
246.932	-46.85
247.202	-176.85
247.471	-47.85
247.741	264.15
248.011	103.15
248.281	-154.85
248.55	-88.85
248.82	64.15
249.09	11.15
249.359	-95.85
249.629	-85.85
249.899	47.15
250.168	43.15
250.438	-29.85
250.708	-108.85
250.977	81.15
251.247	64.15
251.516	-116.85
251.786	-45.85
252.055	131.15
252.325	14.15
252.595	-84.85
252.864	-48.85
253.134	49.15
253.403	-26.85
253.673	-190.85
253.942	-112.85
254.212	35.15
254.481	-8.85
254.75	-142.85
255.02	-75.85
255.289	89.15
255.559	-12.85
255.828	-117.85
256.097	-22.85
256.367	28.15
256.636	-66.85
256.906	-139.85
257.175	-26.85
257.444	235.15
257.714	57.15
257.983	-68.85
258.252	-21.85
258.521	24.15
258.791	48.15
259.06	-101.85
259.329	-52.85
259.598	58.15
259.868	0.15
260.137	-118.85
260.406	-13.85
260.675	87.15
260.944	28.15
261.214	-128.85
261.483	-46.85
261.752	187.15
262.021	16.15
262.29	-172.85
262.559	-119.85
262.828	19.15
263.097	-54.85
263.366	-201.85
263.635	-98.85
263.905	135.15
264.174	27.15
264.443	-199.85
264.712	-120.85
264.981	29.15
265.25	-57.85
265.519	-144.85
265.788	-137.85
266.057	36.15
266.325	59.15
266.594	-44.85
266.863	-127.85
267.132	12.15
267.401	-9.85
267.67	-197.85
267.939	-141.85
268.208	25.15
268.477	68.15
268.745	-136.85
269.014	-106.85
269.283	126.15
269.552	42.15
269.821	-118.85
270.089	-32.85
270.358	-27.85
270.627	-31.85
270.896	-140.85
271.164	-160.85
271.433	15.15
271.702	87.15
271.971	-152.85
272.239	-132.85
272.508	24.15
272.777	-54.85
273.045	-25.85
273.314	-34.85
273.583	97.15
273.851	-23.85
274.12	-163.85
274.388	-129.85
274.657	-15.85
274.926	-11.85
275.194	-161.85
275.463	-67.85
275.731	27.15
276	161.15
276.268	354.15
276.537	-75.85
276.805	39.15
277.074	45.15
277.342	-166.85
277.611	-108.85
277.879	93.15
278.148	32.15
278.416	-151.85
278.684	-131.85
278.953	-13.85
279.221	-30.85
279.49	-187.85
279.758	-98.85
280.026	5.15
280.295	1.15
280.563	-115.85
280.831	726.15
281.1	1831.15
281.368	168.15
281.636	-102.85
281.904	-123.85
282.173	-11.85
282.441	-57.85
282.709	-94.85
282.977	39.15
283.246	34.15
283.514	-36.85
283.782	-49.85
284.05	35.15
284.318	53.15
284.587	-31.85
284.855	-124.85
285.123	-58.85
285.391	78.15
285.659	45.15
285.927	-147.85
286.195	-67.85
286.463	63.15
286.732	-9.85
287	-148.85
287.268	-81.85
287.536	10.15
287.804	-44.85
288.072	-135.85
288.34	-91.85
288.608	67.15
288.876	-33.85
289.144	-117.85
289.412	-18.85
289.68	38.15
289.948	-36.85
290.215	-115.85
290.483	-115.85
290.751	90.15
291.019	97.15
291.287	-180.85
291.555	-144.85
291.823	22.15
292.091	-13.85
292.358	-82.85
292.626	-28.85
292.894	70.15
293.162	44.15
293.43	-108.85
293.697	-77.85
293.965	50.15
294.233	-30.85
294.501	-164.85
294.768	-72.85
295.036	56.15
295.304	18.15
295.572	-140.85
295.839	-99.85
296.107	119.15
296.375	-8.85
296.642	-140.85
296.91	-117.85
297.178	51.15
297.445	162.15
297.713	92.15
297.98	-79.85
298.248	-24.85
298.516	-44.85
298.783	-128.85
299.051	-110.85
299.318	24.15
299.586	-29.85
299.853	-92.85
300.121	-92.85
300.388	46.15
300.656	-6.85
300.923	-151.85
301.191	-49.85
301.458	59.15
301.726	-7.85
301.993	-140.85
302.26	-84.85
302.528	45.15
302.795	-5.85
303.063	-71.85
303.33	-50.85
303.597	14.15
303.865	6.15
304.132	-141.85
304.399	-126.85
304.667	-28.85
304.934	13.15
305.201	-106.85
305.469	-19.85
305.736	59.15
306.003	28.15
306.27	-54.85
306.538	-106.85
306.805	-17.85
307.072	-25.85
307.339	-83.85
307.606	-63.85
307.874	153.15
308.141	60.15
308.408	-133.85
308.675	-119.85
308.942	-52.85
309.209	-62.85
309.477	-136.85
309.744	-118.85
310.011	6.15
310.278	35.15
310.545	-33.85
310.812	-55.85
311.079	127.15
311.346	187.15
311.613	48.15
311.88	-40.85
312.147	-64.85
312.414	-39.85
312.681	-119.85
312.948	-32.85
313.215	95.15
313.482	71.15
313.749	-104.85
314.016	-212.85
314.283	-62.85
314.55	38.15
314.817	-113.85
315.083	-120.85
315.35	-83.85
315.617	-135.85
315.884	-142.85
316.151	50.15
316.418	140.15
316.684	-31.85
316.951	-202.85
317.218	-127.85
317.485	-20.85
317.752	-73.85
318.018	-124.85
318.285	-6.85
318.552	28.15
318.819	-71.85
319.085	-131.85
319.352	-31.85
319.619	34.15
319.885	-40.85
320.152	-203.85
320.419	-99.85
320.685	27.15
320.952	-37.85
321.219	-74.85
321.485	70.15
321.752	5.15
322.019	-64.85
322.285	17.15
322.552	-2.85
322.818	138.15
323.085	-25.85
323.351	-135.85
323.618	-20.85
323.884	44.15
324.151	-76.85
324.417	-33.85
324.684	-86.85
324.95	-57.85
325.217	-163.85
325.483	-203.85
325.75	-47.85
326.016	-6.85
326.283	-23.85
326.549	-194.85
326.815	-77.85
327.082	109.15
327.348	15.15
327.615	-107.85
327.881	-32.85
328.147	112.15
328.414	121.15
328.68	13.15
328.946	-32.85
329.212	28.15
329.479	-1.85
329.745	-106.85
330.011	-112.85
330.278	0.15
330.544	-52.85
330.81	-23.85
331.076	-33.85
331.342	-47.85
331.609	-26.85
331.875	-91.85
332.141	-97.85
332.407	19.15
332.673	-7.85
332.94	-30.85
333.206	-53.85
333.472	29.15
333.738	70.15
334.004	-118.85
334.27	-20.85
334.536	-12.85
334.802	-60.85
335.068	-111.85
335.334	-1.85
335.6	24.15
335.866	-37.85
336.132	-172.85
336.398	-92.85
336.664	-33.85
336.93	-53.85
337.196	-94.85
337.462	-18.85
337.728	19.15
337.994	-47.85
338.26	-89.85
338.526	-38.85
338.792	-58.85
339.058	-50.85
339.324	-144.85
339.59	-2.85
339.856	52.15
340.121	-60.85
340.387	-132.85
340.653	66.15
340.919	140.15
341.185	53.15
341.45	-60.85
341.716	24.15
341.982	112.15
342.248	-76.85
342.514	-104.85
342.779	-6.85
343.045	31.15
343.311	-24.85
343.576	-98.85
343.842	-45.85
344.108	126.15
344.374	11.15
344.639	-121.85
344.905	-110.85
345.171	53.15
345.436	-57.85
345.702	-119.85
345.967	20.15
346.233	67.15
346.499	18.15
346.764	-191.85
347.03	-78.85
347.295	-54.85
347.561	-13.85
347.826	-57.85
348.092	-149.85
348.357	-55.85
348.623	-50.85
348.888	-137.85
349.154	-98.85
349.419	34.15
349.685	-15.85
349.95	-85.85
350.216	-64.85
350.481	18.15
350.747	-70.85
351.012	-199.85
351.277	-129.85
351.543	14.15
351.808	-34.85
352.074	-194.85
352.339	-142.85
352.604	13.15
352.87	-16.85
353.135	-119.85
353.4	-91.85
353.666	-37.85
353.931	-60.85
354.196	-175.85
354.461	-163.85
354.727	-9.85
354.992	-23.85
355.257	-161.85
355.522	-67.85
355.788	-28.85
356.053	34.15
356.318	-114.85
356.583	-132.85
356.848	83.15
357.113	190.15
357.379	-94.85
357.644	-127.85
357.909	74.15
358.174	87.15
358.439	-163.85
358.704	-101.85
358.969	12.15
359.234	12.15
359.499	-168.85
359.765	-82.85
360.03	27.15
360.295	34.15
360.56	-143.85
360.825	-93.85
361.09	115.15
361.355	-65.85
361.62	-108.85
361.885	-69.85
362.15	-102.85
362.415	-69.85
362.679	-129.85
362.944	21.15
363.209	24.15
363.474	31.15
363.739	-27.85
364.004	-123.85
364.269	-47.85
364.534	-17.85
364.799	-79.85
365.063	-69.85
365.328	40.15
365.593	19.15
365.858	-123.85
366.123	-111.85
366.387	15.15
366.652	-55.85
366.917	-147.85
367.182	-90.85
367.447	60.15
367.711	-3.85
367.976	-90.85
368.241	-18.85
368.505	38.15
368.77	-64.85
369.035	-88.85
369.299	-19.85
369.564	17.15
369.829	-75.85
370.093	-116.85
370.358	-125.85
370.623	-15.85
370.887	-7.85
371.152	-152.85
371.416	-68.85
371.681	-40.85
371.946	-141.85
372.21	-163.85
372.475	-37.85
372.739	-14.85
373.004	-71.85
373.268	-113.85
373.533	-41.85
373.797	12.15
374.062	-2.85
374.326	-188.85
374.591	-92.85
374.855	-11.85
375.12	-80.85
375.384	-233.85
375.648	-149.85
375.913	-8.85
376.177	11.15
376.442	-130.85
376.706	-125.85
376.97	11.15
377.235	-39.85
377.499	-79.85
377.763	-75.85
378.028	-91.85
378.292	-42.85
378.556	-120.85
378.821	-185.85
379.085	-96.85
379.349	-187.85
379.614	-255.85
379.878	-110.85
380.142	73.15
380.406	-34.85
380.671	-53.85
380.935	71.15
381.199	175.15
381.463	27.15
381.727	-18.85
381.991	-64.85
382.256	-7.85
382.52	-57.85
382.784	-43.85
383.048	74.15
383.312	-4.85
383.576	-28.85
383.84	-147.85
384.104	-96.85
384.369	-18.85
384.633	-124.85
384.897	-223.85
385.161	-104.85
385.425	3.15
385.689	-71.85
385.953	-123.85
386.217	-140.85
386.481	-53.85
386.745	-38.85
387.009	-67.85
387.273	-128.85
387.537	-93.85
387.801	-56.85
388.064	-119.85
388.328	-32.85
388.592	16.15
388.856	-53.85
389.12	-126.85
389.384	-61.85
389.648	-27.85
389.912	45.15
390.176	39.15
390.439	112.15
390.703	-60.85
390.967	-93.85
391.231	-170.85
391.495	-121.85
391.758	-54.85
392.022	-21.85
392.286	-148.85
392.55	-144.85
392.813	-29.85
393.077	22.15
393.341	-78.85
393.605	15.15
393.868	-38.85
394.132	-57.85
394.396	-95.85
394.659	40.15
394.923	-28.85
395.187	-85.85
395.45	-107.85
395.714	-41.85
395.978	-42.85
396.241	-37.85
396.505	-97.85
396.768	-40.85
397.032	3.15
397.295	-8.85
397.559	-101.85
397.823	-131.85
398.086	21.15
398.35	-39.85
398.613	-160.85
398.877	-40.85
399.14	90.15
399.404	95.15
399.667	-28.85
399.931	-112.85
400.194	-7.85
400.457	-47.85
400.721	-75.85
400.984	19.15
401.248	-44.85
401.511	-72.85
401.775	-172.85
402.038	-118.85
402.301	77.15
402.565	16.15
402.828	-200.85
403.091	-128.85
403.355	0.15
403.618	3.15
403.881	0.15
404.145	-54.85
404.408	12.15
404.671	-29.85
404.934	-24.85
405.198	11.15
405.461	6.15
405.724	33.15
405.987	-14.85
406.251	13.15
406.514	107.15
406.777	-42.85
407.04	-128.85
407.303	-129.85
407.567	14.15
407.83	71.15
408.093	-139.85
408.356	-24.85
408.619	32.15
408.882	73.15
409.145	-37.85
409.408	-54.85
409.672	39.15
409.935	-31.85
410.198	-164.85
410.461	-67.85
410.724	76.15
410.987	-15.85
411.25	-156.85
411.513	-21.85
411.776	38.15
412.039	-72.85
412.302	-128.85
412.565	-126.85
412.828	-64.85
413.091	-59.85
413.354	-130.85
413.617	-119.85
413.879	-56.85
414.142	-25.85
414.405	-165.85
414.668	-77.85
414.931	50.15
415.194	23.15
415.457	-135.85
415.72	-60.85
415.983	-19.85
416.245	-14.85
416.508	-113.85
416.771	-153.85
417.034	-2.85
417.297	-1.85
417.559	-45.85
417.822	-64.85
418.085	16.15
418.348	2.15
418.61	-148.85
418.873	-137.85
419.136	-85.85
419.399	-97.85
419.661	-85.85
419.924	-108.85
420.187	-15.85
420.449	-45.85
420.712	-107.85
420.975	-145.85
421.237	-41.85
421.5	-49.85
421.762	2.15
422.025	51.15
422.288	67.15
422.55	-113.85
422.813	-199.85
423.075	-113.85
423.338	-32.85
423.601	-17.85
423.863	-78.85
424.126	-55.85
424.388	56.15
424.651	-13.85
424.913	-76.85
425.176	-72.85
425.438	-39.85
425.701	36.15
425.963	-97.85
426.225	-156.85
426.488	-58.85
426.75	-83.85
427.013	-140.85
427.275	-95.85
427.538	-62.85
427.8	-69.85
428.062	-151.85
428.325	-61.85
428.587	37.15
428.849	-21.85
429.112	-116.85
429.374	-131.85
429.636	-59.85
429.899	15.15
430.161	-109.85
430.423	-81.85
430.686	30.15
430.948	-2.85
431.21	-142.85
431.472	-143.85
431.735	-61.85
431.997	-83.85
432.259	-43.85
432.521	-116.85
432.783	-16.85
433.046	-43.85
433.308	-149.85
433.57	-78.85
433.832	135.15
434.094	-69.85
434.356	-189.85
434.618	-102.85
434.881	-26.85
435.143	-77.85
435.405	-72.85
435.667	-35.85
435.929	-34.85
436.191	-75.85
436.453	-146.85
436.715	-51.85
436.977	13.15
437.239	-33.85
437.501	-176.85
437.763	-139.85
438.025	6.15
438.287	-21.85
438.549	-118.85
438.811	-69.85
439.073	-34.85
439.335	-104.85
439.597	-126.85
439.859	-32.85
440.121	78.15
440.383	-123.85
440.645	-137.85
440.907	-46.85
441.168	-2.85
441.43	-59.85
441.692	-151.85
441.954	-121.85
442.216	-48.85
442.478	-71.85
442.74	-180.85
443.001	-56.85
443.263	78.15
443.525	5.15
443.787	-128.85
444.048	-96.85
444.31	-70.85
444.572	-89.85
444.834	-116.85
445.095	-89.85
445.357	49.15
445.619	-19.85
445.881	-224.85
446.142	-135.85
446.404	-67.85
446.666	-53.85
446.927	-112.85
447.189	13.15
447.451	54.15
447.712	-22.85
447.974	-226.85
448.235	-188.85
448.497	-44.85
448.759	-103.85
449.02	-160.85
449.282	-191.85
449.543	-14.85
449.805	52.15
450.066	-203.85
450.328	-75.85
450.59	117.15
450.851	-20.85
451.113	-66.85
451.374	-149.85
451.636	-9.85
451.897	38.15
452.158	-45.85
452.42	51.15
452.681	74.15
452.943	-105.85
453.204	-188.85
453.466	-177.85
453.727	-82.85
453.988	-47.85
454.25	-158.85
454.511	-184.85
454.773	-70.85
455.034	76.15
455.295	-137.85
455.557	-154.85
455.818	-52.85
456.079	-42.85
456.341	50.15
456.602	20.15
456.863	26.15
457.124	-40.85
457.386	-163.85
457.647	-170.85
457.908	-71.85
458.169	21.15
458.431	-167.85
458.692	-172.85
458.953	-65.85
459.214	-89.85
459.476	-93.85
459.737	-27.85
459.998	23.15
460.259	-81.85
460.52	-167.85
460.781	-100.85
461.043	51.15
461.304	-62.85
461.565	-185.85
461.826	-144.85
462.087	-33.85
462.348	6.15
462.609	-120.85
462.87	-57.85
463.131	-87.85
463.392	-11.85
463.653	-106.85
463.914	-62.85
464.175	-22.85
464.436	-84.85
464.697	-151.85
464.958	-118.85
465.219	-29.85
465.48	-47.85
465.741	-59.85
466.002	-113.85
466.263	-56.85
466.524	-41.85
466.785	-136.85
467.046	-112.85
467.307	-13.85
467.568	-89.85
467.829	-117.85
468.089	-79.85
468.35	-11.85
468.611	-73.85
468.872	-151.85
469.133	-48.85
469.394	31.15
469.655	66.15
469.915	-113.85
470.176	-175.85
470.437	-145.85
470.698	-58.85
470.958	-112.85
471.219	-164.85
471.48	-86.85
471.741	-93.85
472.001	-169.85
472.262	-110.85
472.523	11.15
472.784	41.15
473.044	-93.85
473.305	-76.85
473.566	43.15
473.826	4.15
474.087	-107.85
474.348	-93.85
474.608	-25.85
474.869	15.15
475.129	-107.85
475.39	-143.85
475.651	-53.85
475.911	-22.85
476.172	-173.85
476.432	-66.85
476.693	79.15
476.953	5.15
477.214	-13.85
477.475	0.15
477.735	4.15
477.996	12.15
478.256	-174.85
478.517	-152.85
478.777	-57.85
479.038	26.15
479.298	-9.85
479.558	-94.85
479.819	73.15
480.079	55.15
480.34	-47.85
480.6	-122.85
480.861	-5.85
481.121	-36.85
481.381	-132.85
481.642	-39.85
481.902	-41.85
482.162	-112.85
482.423	-77.85
482.683	-19.85
482.943	2.15
483.204	-82.85
483.464	-103.85
483.724	-63.85
483.985	-22.85
484.245	-0.85
484.505	-68.85
484.765	-11.85
485.026	46.15
485.286	25.15
485.546	-55.85
485.806	14.15
486.067	17.15
486.327	-99.85
486.587	-157.85
486.847	-133.85
487.107	-29.85
487.368	-5.85
487.628	-75.85
487.888	-78.85
488.148	10.15
488.408	-78.85
488.668	-53.85
488.928	-13.85
489.188	-14.85
489.449	88.15
489.709	-67.85
489.969	-95.85
490.229	4.15
490.489	-30.85
490.749	-116.85
491.009	-184.85
491.269	-81.85
491.529	-81.85
491.789	-161.85
492.049	-56.85
492.309	58.15
492.569	-72.85
492.829	-101.85
493.089	-95.85
493.349	53.15
493.609	-47.85
493.869	-132.85
494.129	-53.85
494.389	56.15
494.648	-86.85
494.908	-171.85
495.168	-71.85
495.428	62.15
495.688	-32.85
495.948	-195.85
496.208	-168.85
496.467	-108.85
496.727	-68.85
496.987	-77.85
497.247	-71.85
497.507	2.15
497.767	9.15
498.026	-161.85
498.286	-48.85
498.546	159.15
498.806	12.15
499.065	46.15
499.325	-17.85
499.585	-29.85
499.845	-26.85
500.104	-36.85
500.364	71.15
500.624	9.15
500.883	-75.85
501.143	-32.85
501.403	21.15
501.662	107.15
501.922	18.15
502.182	-127.85
502.441	-143.85
502.701	-67.85
502.96	37.15
503.22	-59.85
503.48	-93.85
503.739	-11.85
503.999	-45.85
504.258	-127.85
504.518	-61.85
504.777	50.15
505.037	-21.85
505.296	-89.85
505.556	-98.85
505.815	35.15
506.075	118.15
506.334	-0.85
506.594	-143.85
506.853	-71.85
507.113	-69.85
507.372	-221.85
507.632	-154.85
507.891	-36.85
508.151	-11.85
508.41	-164.85
508.669	-117.85
508.929	16.15
509.188	-39.85
509.447	-88.85
509.707	-99.85
509.966	-26.85
510.226	-25.85
510.485	-76.85
510.744	-65.85
511.004	24.15
511.263	-59.85
511.522	-140.85
511.781	-108.85
512.041	21.15
512.3	-53.85
512.559	-13.85
512.818	17.15
513.078	21.15
513.337	-4.85
513.596	-78.85
513.855	-93.85
514.115	25.15
514.374	-26.85
514.633	-128.85
514.892	-154.85
515.151	-9.85
515.41	39.15
515.67	-56.85
515.929	-123.85
516.188	-27.85
516.447	-43.85
516.706	-132.85
516.965	-93.85
517.224	-52.85
517.483	-65.85
517.743	-109.85
518.002	-74.85
518.261	20.15
518.52	-26.85
518.779	-134.85
519.038	-117.85
519.297	-56.85
519.556	-66.85
519.815	-168.85
520.074	-158.85
520.333	-41.85
520.592	-67.85
520.851	-157.85
521.11	-34.85
521.369	118.15
521.628	-57.85
521.887	-150.85
522.145	-80.85
522.404	-32.85
522.663	-50.85
522.922	-188.85
523.181	-159.85
523.44	-27.85
523.699	-7.85
523.958	-162.85
524.217	-129.85
524.475	-114.85
524.734	-137.85
524.993	-164.85
525.252	-96.85
525.511	-17.85
525.769	-69.85
526.028	-154.85
526.287	-90.85
526.546	-27.85
526.805	-44.85
527.063	-128.85
527.322	-161.85
527.581	-63.85
527.839	-48.85
528.098	-73.85
528.357	-62.85
528.616	-43.85
528.874	-56.85
529.133	-91.85
529.392	-53.85
529.65	-8.85
529.909	-47.85
530.168	-153.85
530.426	-112.85
530.685	24.15
530.943	-24.85
531.202	-141.85
531.461	-121.85
531.719	19.15
531.978	-52.85
532.236	-127.85
532.495	-40.85
532.753	9.15
533.012	-79.85
533.271	-155.85
533.529	-164.85
533.788	-69.85
534.046	-146.85
534.305	-173.85
534.563	42.15
534.822	108.15
535.08	-14.85
535.338	-124.85
535.597	-78.85
535.855	-0.85
536.114	-48.85
536.372	-140.85
536.631	-74.85
536.889	32.15
537.147	-19.85
537.406	-200.85
537.664	-84.85
537.923	-31.85
538.181	-19.85
538.439	-159.85
538.698	-16.85
538.956	-32.85
539.214	-72.85
539.473	-100.85
539.731	-49.85
539.989	4.15
540.248	-65.85
540.506	-130.85
540.764	-120.85
541.022	-14.85
541.281	13.15
541.539	-107.85
541.797	-158.85
542.055	-28.85
542.314	55.15
542.572	14.15
542.83	-117.85
543.088	4.15
543.346	-65.85
543.604	-153.85
543.863	-65.85
544.121	61.15
544.379	-17.85
544.637	-144.85
544.895	-8.85
545.153	113.15
545.411	-35.85
545.67	-206.85
545.928	-154.85
546.186	-32.85
546.444	7.15
546.702	-71.85
546.96	-36.85
547.218	25.15
547.476	-62.85
547.734	-142.85
547.992	-73.85
548.25	10.15
548.508	-73.85
548.766	-89.85
549.024	-86.85
549.282	-74.85
549.54	-58.85
549.798	-75.85
550.056	-84.85
550.314	23.15
550.572	-38.85
550.83	-175.85
551.088	-79.85
551.346	44.15
551.603	25.15
551.861	-125.85
552.119	-36.85
552.377	64.15
552.635	-49.85
552.893	-175.85
553.151	-154.85
553.409	-14.85
553.666	-20.85
553.924	-125.85
554.182	-131.85
554.44	19.15
554.698	64.15
554.955	-81.85
555.213	-76.85
555.471	21.15
555.729	-46.85
555.986	-205.85
556.244	-100.85
556.502	96.15
556.76	-3.85
557.017	-94.85
557.275	-29.85
557.533	89.15
557.79	33.15
558.048	-159.85
558.306	-72.85
558.563	21.15
558.821	-82.85
559.079	-121.85
559.336	-89.85
559.594	-38.85
559.852	-119.85
560.109	-164.85
560.367	-51.85
560.624	-0.85
560.882	-62.85
561.14	-85.85
561.397	38.15
561.655	-47.85
561.912	-25.85
562.17	-131.85
562.427	-55.85
562.685	-0.85
562.942	-0.85
563.2	-136.85
563.457	-63.85
563.715	2.15
563.972	20.15
564.23	-136.85
564.487	-164.85
564.745	-24.85
565.002	13.15
565.26	-67.85
565.517	-84.85
565.774	-9.85
566.032	25.15
566.289	-50.85
566.547	-20.85
566.804	104.15
567.061	55.15
567.319	-50.85
567.576	75.15
567.833	216.15
568.091	263.15
568.348	95.15
568.605	154.15
568.863	234.15
569.12	223.15
569.377	141.15
569.635	181.15
569.892	280.15
570.149	290.15
570.406	222.15
570.664	336.15
570.921	520.15
571.178	490.15
571.435	571.15
571.693	652.15
571.95	787.15
572.207	803.15
572.464	857.15
572.721	1060.15
572.979	1259.15
573.236	1279.15
573.493	1278.15
573.75	1405.15
574.007	1622.15
574.264	1632.15
574.521	1731.15
574.779	1898.15
575.036	2119.15
575.293	2216.15
575.55	2310.15
575.807	2455.15
576.064	2738.15
576.321	2835.15
576.578	2799.15
576.835	3000.15
577.092	3363.15
577.349	3425.15
577.606	3390.15
577.863	3600.15
578.12	3944.15
578.377	4092.15
578.634	3990.15
578.891	4198.15
579.148	4456.15
579.405	4513.15
579.662	4566.15
579.919	4809.15
580.176	4982.15
580.433	5080.15
580.69	5124.15
580.947	5283.15
581.204	5482.15
581.461	5462.15
581.717	5476.15
581.974	5724.15
582.231	5872.15
582.488	5845.15
582.745	5801.15
583.002	5922.15
583.259	6163.15
583.515	6177.15
583.772	6112.15
584.029	6212.15
584.286	6373.15
584.543	6306.15
584.799	6303.15
585.056	6468.15
585.313	6617.15
585.57	6642.15
585.826	6527.15
586.083	6657.15
586.34	6817.15
586.597	6656.15
586.853	6588.15
587.11	6627.15
587.367	6752.15
587.623	6843.15
587.88	6778.15
588.137	6654.15
588.393	6826.15
588.65	6800.15
588.907	6697.15
589.163	6723.15
589.42	6821.15
589.677	6857.15
589.933	6789.15
590.19	6857.15
590.446	6987.15
590.703	6963.15
590.96	6712.15
591.216	6721.15
591.473	6813.15
591.729	6807.15
591.986	6800.15
592.242	6863.15
592.499	7044.15
592.755	6882.15
593.012	6742.15
593.268	6847.15
593.525	6848.15
593.781	6873.15
594.038	6723.15
594.294	6760.15
594.551	6818.15
594.807	6797.15
595.064	6842.15
595.32	6794.15
595.576	6860.15
595.833	6956.15
596.089	6795.15
596.346	6860.15
596.602	6939.15
596.858	7009.15
597.115	6829.15
597.371	6902.15
597.628	6909.15
597.884	6836.15
598.14	6758.15
598.397	6895.15
598.653	6988.15
598.909	6835.15
599.166	6694.15
599.422	6742.15
599.678	6868.15
599.934	6883.15
600.191	6713.15
600.447	6771.15
600.703	6814.15
600.959	6732.15
601.216	6590.15
601.472	6649.15
601.728	6759.15
601.984	6720.15
602.241	6692.15
602.497	6794.15
602.753	6936.15
603.009	6807.15
603.265	6722.15
603.521	6856.15
603.778	6939.15
604.034	6749.15
604.29	6696.15
604.546	6716.15
604.802	6778.15
605.058	6715.15
605.314	6668.15
605.571	6699.15
605.827	6773.15
606.083	6716.15
606.339	6618.15
606.595	6776.15
606.851	6869.15
607.107	6873.15
607.363	6679.15
607.619	6654.15
607.875	6870.15
608.131	6887.15
608.387	6586.15
608.643	6625.15
608.899	6727.15
609.155	6701.15
609.411	6678.15
609.667	6691.15
609.923	6696.15
610.179	6658.15
610.435	6506.15
610.691	6604.15
610.947	6741.15
611.203	6620.15
611.459	6598.15
611.714	6640.15
611.97	6745.15
612.226	6708.15
612.482	6528.15
612.738	6625.15
612.994	6810.15
613.25	6626.15
613.505	6481.15
613.761	6494.15
614.017	6546.15
614.273	6567.15
614.529	6436.15
614.785	6399.15
615.04	6500.15
615.296	6503.15
615.552	6468.15
615.808	6492.15
616.063	6562.15
616.319	6541.15
616.575	6421.15
616.831	6459.15
617.086	6621.15
617.342	6550.15
617.598	6411.15
617.854	6486.15
618.109	6522.15
618.365	6321.15
618.621	6225.15
618.876	6318.15
619.132	6396.15
619.388	6324.15
619.643	6154.15
619.899	6221.15
620.155	6302.15
620.41	6329.15
620.666	6187.15
620.921	6232.15
621.177	6411.15
621.433	6387.15
621.688	6271.15
621.944	6156.15
622.199	6210.15
622.455	6201.15
622.71	6074.15
622.966	6097.15
623.221	6089.15
623.477	6103.15
623.732	6097.15
623.988	5973.15
624.243	6102.15
624.499	6069.15
624.754	5888.15
625.01	5969.15
625.265	6065.15
625.521	6115.15
625.776	5952.15
626.032	5934.15
626.287	5982.15
626.543	5916.15
626.798	5831.15
627.053	5828.15
627.309	5888.15
627.564	5846.15
627.82	5801.15
628.075	5841.15
628.33	5786.15
628.586	5631.15
628.841	5545.15
629.096	5676.15
629.352	5733.15
629.607	5608.15
629.862	5572.15
630.118	5696.15
630.373	5642.15
630.628	5666.15
630.884	5496.15
631.139	5513.15
631.394	5643.15
631.649	5566.15
631.905	5465.15
632.16	5535.15
632.415	5743.15
632.67	5522.15
632.926	5363.15
633.181	5372.15
633.436	5516.15
633.691	5439.15
633.946	5310.15
634.202	5291.15
634.457	5376.15
634.712	5348.15
634.967	5223.15
635.222	5214.15
635.477	5289.15
635.733	5207.15
635.988	5099.15
636.243	5140.15
636.498	5279.15
636.753	5233.15
637.008	5051.15
637.263	5146.15
637.518	5194.15
637.773	5132.15
638.028	5103.15
638.283	5086.15
638.539	5168.15
638.794	5069.15
639.049	4955.15
639.304	4966.15
639.559	5009.15
639.814	4986.15
640.069	4901.15
640.324	4907.15
640.579	5002.15
640.834	4909.15
641.089	4778.15
641.344	4834.15
641.598	5019.15
641.853	4908.15
642.108	4724.15
642.363	4683.15
642.618	4865.15
642.873	4769.15
643.128	4623.15
643.383	4635.15
643.638	4708.15
643.893	4776.15
644.148	4733.15
644.402	4595.15
644.657	4689.15
644.912	4673.15
645.167	4633.15
645.422	4658.15
645.677	4609.15
645.931	4642.15
646.186	4640.15
646.441	4559.15
646.696	4531.15
646.951	4537.15
647.205	4513.15
647.46	4483.15
647.715	4503.15
647.97	4673.15
648.224	4740.15
648.479	4538.15
648.734	4613.15
648.989	4573.15
649.243	4478.15
649.498	4434.15
649.753	4447.15
650.007	4498.15
650.262	4381.15
650.517	4378.15
650.771	4431.15
651.026	4324.15
651.281	4207.15
651.535	4334.15
651.79	4370.15
652.045	4320.15
652.299	4257.15
652.554	4279.15
652.809	4321.15
653.063	4492.15
653.318	4376.15
653.572	4246.15
653.827	4356.15
654.081	4295.15
654.336	4177.15
654.591	4192.15
654.845	4312.15
655.1	4220.15
655.354	4152.15
655.609	4227.15
655.863	4323.15
656.118	4309.15
656.372	4138.15
656.627	4148.15
656.881	4243.15
657.136	4186.15
657.39	4073.15
657.645	4200.15
657.899	4324.15
658.153	4184.15
658.408	4079.15
658.662	4148.15
658.917	4162.15
659.171	4076.15
659.426	3988.15
659.68	4079.15
659.934	4189.15
660.189	4174.15
660.443	4070.15
660.697	4190.15
660.952	4246.15
661.206	4161.15
661.46	3999.15
661.715	4052.15
661.969	4162.15
662.223	4122.15
662.478	4047.15
662.732	4116.15
662.986	4150.15
663.241	4188.15
663.495	4074.15
663.749	4061.15
664.003	4220.15
664.258	4138.15
664.512	4060.15
664.766	4067.15
665.02	4166.15
665.275	4202.15
665.529	4026.15
665.783	4036.15
666.037	4115.15
666.291	4112.15
666.546	4064.15
666.8	4104.15
667.054	4077.15
667.308	4119.15
667.562	3971.15
667.816	4035.15
668.071	4169.15
668.325	4112.15
668.579	4103.15
668.833	4132.15
669.087	4268.15
669.341	4145.15
669.595	4057.15
669.849	4120.15
670.103	4149.15
670.357	4166.15
670.612	4144.15
670.866	4120.15
671.12	4209.15
671.374	4204.15
671.628	4151.15
671.882	4124.15
672.136	4188.15
672.39	4198.15
672.644	4035.15
672.898	4235.15
673.152	4348.15
673.406	4262.15
673.66	4202.15
673.914	4234.15
674.168	4320.15
674.422	4275.15
674.675	4176.15
674.929	4225.15
675.183	4338.15
675.437	4289.15
675.691	4215.15
675.945	4333.15
676.199	4465.15
676.453	4320.15
676.707	4157.15
676.961	4189.15
677.214	4304.15
677.468	4313.15
677.722	4320.15
677.976	4301.15
678.23	4382.15
678.484	4367.15
678.737	4243.15
678.991	4273.15
679.245	4375.15
679.499	4378.15
679.753	4276.15
680.006	4341.15
680.26	4497.15
680.514	4471.15
680.768	4271.15
681.021	4337.15
681.275	4406.15
681.529	4434.15
681.783	4370.15
682.036	4451.15
682.29	4432.15
682.544	4409.15
682.797	4364.15
683.051	4363.15
683.305	4430.15
683.559	4454.15
683.812	4482.15
684.066	4465.15
684.32	4554.15
684.573	4500.15
684.827	4514.15
685.08	4554.15
685.334	4646.15
685.588	4555.15
685.841	4418.15
686.095	4612.15
686.348	4630.15
686.602	4565.15
686.856	4585.15
687.109	4499.15
687.363	4540.15
687.616	4537.15
687.87	4406.15
688.123	4476.15
688.377	4600.15
688.63	4647.15
688.884	4635.15
689.137	4706.15
689.391	4722.15
689.644	4561.15
689.898	4452.15
690.151	4522.15
690.405	4667.15
690.658	4639.15
690.912	4507.15
691.165	4497.15
691.419	4620.15
691.672	4682.15
691.926	4619.15
692.179	4570.15
692.432	4607.15
692.686	4558.15
692.939	4453.15
693.193	4493.15
693.446	4691.15
693.699	4703.15
693.953	4685.15
694.206	4644.15
694.459	4732.15
694.713	4755.15
694.966	4608.15
695.219	4608.15
695.473	4680.15
695.726	4573.15
695.979	4525.15
696.233	4676.15
696.486	4713.15
696.739	4640.15
696.992	4528.15
697.246	4688.15
697.499	4781.15
697.752	4596.15
698.006	4554.15
698.259	4661.15
698.512	4630.15
698.765	4609.15
699.018	4532.15
699.272	4602.15
699.525	4648.15
699.778	4545.15
700.031	4514.15
700.284	4525.15
700.538	4620.15
700.791	4628.15
701.044	4594.15
701.297	4628.15
701.55	4595.15
701.803	4538.15
702.056	4449.15
702.31	4535.15
702.563	4657.15
702.816	4548.15
703.069	4428.15
703.322	4525.15
703.575	4600.15
703.828	4649.15
704.081	4559.15
704.334	4527.15
704.587	4601.15
704.84	4562.15
705.093	4447.15
705.346	4552.15
705.599	4566.15
705.853	4556.15
706.106	4675.15
706.359	4895.15
706.612	4590.15
706.865	4607.15
707.118	4447.15
707.37	4530.15
707.623	4673.15
707.876	4558.15
708.129	4493.15
708.382	4608.15
708.635	4682.15
708.888	4503.15
709.141	4397.15
709.394	4486.15
709.647	4546.15
709.9	4459.15
710.153	4346.15
710.406	4444.15
710.658	4506.15
710.911	4447.15
711.164	4334.15
711.417	4325.15
711.67	4397.15
711.923	4408.15
712.176	4294.15
712.428	4358.15
712.681	4428.15
712.934	4416.15
713.187	4351.15
713.44	4287.15
713.692	4425.15
713.945	4327.15
714.198	4234.15
714.451	4204.15
714.704	4348.15
714.956	4375.15
715.209	4379.15
715.462	4321.15
715.715	4341.15
715.967	4320.15
716.22	4139.15
716.473	4182.15
716.725	4347.15
716.978	4264.15
717.231	4237.15
717.484	4264.15
717.736	4200.15
717.989	4127.15
718.242	4046.15
718.494	4183.15
718.747	4274.15
718.999	4201.15
719.252	4213.15
719.505	4191.15
719.757	4184.15
720.01	4124.15
720.263	4084.15
720.515	4091.15
720.768	4171.15
721.02	4138.15
721.273	4012.15
721.525	3981.15
721.778	4095.15
722.031	4152.15
722.283	3971.15
722.536	3993.15
722.788	4072.15
723.041	4029.15
723.293	3933.15
723.546	3898.15
723.798	3998.15
724.051	4059.15
724.303	3993.15
724.556	4019.15
724.808	4139.15
725.061	4037.15
725.313	3894.15
725.566	3898.15
725.818	3902.15
726.071	3876.15
726.323	3712.15
726.575	3772.15
726.828	3938.15
727.08	3949.15
727.333	3778.15
727.585	3808.15
727.837	3852.15
728.09	3805.15
728.342	3679.15
728.595	3808.15
728.847	3961.15
729.099	3685.15
729.352	3681.15
729.604	3684.15
729.856	3750.15
730.109	3758.15
730.361	3660.15
730.613	3770.15
730.866	3847.15
731.118	3681.15
731.37	3582.15
731.622	3616.15
731.875	3702.15
732.127	3719.15
732.379	3695.15
732.631	3759.15
732.884	3675.15
733.136	3615.15
733.388	3515.15
733.64	3556.15
733.893	3710.15
734.145	3606.15
734.397	3482.15
734.649	3448.15
734.901	3553.15
735.154	3468.15
735.406	3395.15
735.658	3463.15
735.91	3593.15
736.162	3504.15
736.414	3372.15
736.667	3478.15
736.919	3541.15
737.171	3432.15
737.423	3378.15
737.675	3378.15
737.927	3492.15
738.179	3449.15
738.431	3349.15
738.684	3313.15
738.936	3395.15
739.188	3445.15
739.44	3241.15
739.692	3247.15
739.944	3277.15
740.196	3277.15
740.448	3213.15
740.7	3222.15
740.952	3276.15
741.204	3268.15
741.456	3179.15
741.708	3201.15
741.96	3218.15
742.212	3296.15
742.464	3264.15
742.716	3120.15
742.968	3195.15
743.22	3112.15
743.472	3074.15
743.724	3171.15
743.976	3328.15
744.228	3293.15
744.48	3081.15
744.732	3082.15
744.983	3194.15
745.235	3162.15
745.487	3083.15
745.739	3170.15
745.991	3122.15
746.243	3160.15
746.495	2987.15
746.747	3016.15
746.999	3148.15
747.25	3136.15
747.502	3118.15
747.754	3199.15
748.006	3140.15
748.258	3213.15
748.51	3228.15
748.761	3077.15
749.013	3112.15
749.265	3166.15
749.517	3137.15
749.768	3178.15
750.02	3209.15
750.272	3137.15
750.524	2955.15
750.776	2949.15
751.027	3131.15
751.279	3166.15
751.531	2939.15
751.782	2996.15
752.034	3097.15
752.286	2988.15
752.538	2889.15
752.789	3004.15
753.041	3053.15
753.293	2996.15
753.544	2931.15
753.796	2923.15
754.048	3007.15
754.299	2990.15
754.551	2953.15
754.803	2911.15
755.054	2934.15
755.306	3003.15
755.558	2871.15
755.809	2904.15
756.061	3012.15
756.312	2867.15
756.564	2862.15
756.816	2902.15
757.067	2916.15
757.319	2866.15
757.57	2782.15
757.822	2864.15
758.073	2965.15
758.325	2936.15
758.577	2791.15
758.828	2771.15
759.08	2958.15
759.331	2935.15
759.583	2729.15
759.834	2826.15
760.086	2771.15
760.337	2775.15
760.589	2717.15
760.84	2711.15
761.092	2767.15
761.343	2729.15
761.595	2594.15
761.846	2759.15
762.097	2789.15
762.349	2715.15
762.6	2533.15
762.852	2669.15
763.103	2800.15
763.355	2684.15
763.606	2621.15
763.857	2790.15
764.109	2836.15
764.36	2691.15
764.612	2602.15
764.863	2735.15
765.114	2756.15
765.366	2592.15
765.617	2509.15
765.868	2592.15
766.12	2710.15
766.371	2680.15
766.622	2468.15
766.874	2563.15
767.125	2690.15
767.376	2556.15
767.628	2536.15
767.879	2569.15
768.13	2634.15
768.381	2603.15
768.633	2584.15
768.884	2575.15
769.135	2634.15
769.386	2607.15
769.638	2516.15
769.889	2564.15
770.14	2597.15
770.391	2471.15
770.643	2413.15
770.894	2396.15
771.145	2525.15
771.396	2446.15
771.647	2337.15
771.899	2474.15
772.15	2571.15
772.401	2477.15
772.652	2343.15
772.903	2411.15
773.154	2724.15
773.406	2934.15
773.657	2406.15
773.908	2392.15
774.159	2456.15
774.41	2444.15
774.661	2328.15
774.912	2409.15
775.163	2557.15
775.414	2511.15
775.666	2254.15
775.917	2327.15
776.168	2354.15
776.419	2334.15
776.67	2256.15
776.921	2234.15
777.172	2330.15
777.423	2355.15
777.674	2368.15
777.925	2369.15
778.176	2324.15
778.427	2313.15
778.678	2217.15
778.929	2234.15
779.18	2313.15
779.431	2240.15
779.682	2291.15
779.933	2305.15
780.184	2318.15
780.435	2285.15
780.686	2228.15
780.937	2284.15
781.188	2349.15
781.439	2409.15
781.69	2302.15
781.941	2243.15
782.191	2275.15
782.442	2247.15
782.693	2167.15
782.944	2145.15
783.195	2241.15
783.446	2249.15
783.697	2249.15
783.948	2133.15
784.199	2158.15
784.449	2144.15
784.7	2136.15
784.951	2163.15
785.202	2318.15
785.453	2273.15
785.704	2067.15
785.954	2069.15
786.205	2125.15
786.456	2058.15
786.707	1976.15
786.958	2029.15
787.208	2153.15
787.459	2073.15
787.71	2077.15
787.961	2076.15
788.211	2114.15
788.462	2109.15
788.713	2046.15
788.964	2021.15
789.214	2156.15
789.465	2156.15
789.716	2067.15
789.967	2062.15
790.217	2054.15
790.468	2017.15
790.719	1952.15
790.969	1975.15
791.22	2031.15
791.471	2112.15
791.721	2158.15
791.972	2042.15
792.223	2081.15
792.473	1984.15
792.724	1940.15
792.975	1943.15
793.225	2016.15
793.476	1990.15
793.726	1930.15
793.977	2022.15
794.228	2152.15
794.478	2030.15
794.729	1901.15
794.979	2008.15
795.23	2038.15
795.481	1963.15
795.731	1845.15
795.982	1934.15
796.232	1929.15
796.483	1885.15
796.733	1827.15
796.984	1879.15
797.234	1967.15
797.485	1987.15
797.735	1810.15
797.986	1843.15
798.236	1927.15
798.487	1844.15
798.737	1852.15
798.988	1947.15
799.238	2006.15
799.489	1914.15
799.739	1789.15
799.99	1833.15
800.24	1949.15
800.491	1976.15
800.741	1839.15
800.991	1809.15
801.242	1876.15
801.492	1854.15
801.743	1792.15
801.993	1902.15
802.244	2026.15
802.494	1850.15
802.744	1780.15
802.995	1811.15
803.245	1832.15
803.495	1788.15
803.746	1734.15
803.996	1818.15
804.246	1848.15
804.497	1811.15
804.747	1659.15
804.997	1731.15
805.248	1753.15
805.498	1730.15
805.748	1769.15
805.999	1685.15
806.249	1760.15
806.499	1740.15
806.75	1617.15
807	1637.15
807.25	1741.15
807.5	1678.15
807.751	1709.15
808.001	1786.15
808.251	1802.15
808.501	1854.15
808.752	1825.15
809.002	1766.15
809.252	1721.15
809.502	1667.15
809.752	1661.15
810.003	1632.15
810.253	1702.15
810.503	1736.15
810.753	1744.15
811.003	1735.15
811.254	1762.15
811.504	1699.15
811.754	1640.15
812.004	1652.15
812.254	1887.15
812.504	1735.15
812.754	1633.15
813.005	1675.15
813.255	1756.15
813.505	1662.15
813.755	1560.15
814.005	1636.15
814.255	1659.15
814.505	1651.15
814.755	1513.15
815.005	1573.15
815.255	1683.15
815.505	1616.15
815.756	1671.15
816.006	1652.15
816.256	1608.15
816.506	1536.15
816.756	1475.15
817.006	1556.15
817.256	1649.15
817.506	1597.15
817.756	1529.15
818.006	1549.15
818.256	1587.15
818.506	1586.15
818.756	1461.15
819.006	1502.15
819.256	1630.15
819.506	1542.15
819.756	1494.15
820.006	1576.15
820.255	1614.15
820.505	1590.15
820.755	1468.15
821.005	1488.15
821.255	1622.15
821.505	1535.15
821.755	1472.15
822.005	1563.15
822.255	1612.15
822.505	1526.15
822.755	1552.15
823.004	1440.15
823.254	1441.15
823.504	1492.15
823.754	1503.15
824.004	1447.15
824.254	1568.15
824.504	1535.15
824.753	1561.15
825.003	1570.15
825.253	1597.15
825.503	1493.15
825.753	1409.15
826.002	1511.15
826.252	1701.15
826.502	1494.15
826.752	1430.15
827.002	1449.15
827.251	1518.15
827.501	1455.15
827.751	1389.15
828.001	1421.15
828.25	1480.15
828.5	1362.15
828.75	1339.15
829	1441.15
829.249	1534.15
829.499	1352.15
829.749	1368.15
829.998	1457.15
830.248	1450.15
830.498	1361.15
830.748	1393.15
830.997	1427.15
831.247	1478.15
831.497	1490.15
831.746	1418.15
831.996	1483.15
832.246	1586.15
832.495	1592.15
832.745	1337.15
832.994	1357.15
833.244	1519.15
833.494	1396.15
833.743	1316.15
833.993	1350.15
834.243	1431.15
834.492	1401.15
834.742	1351.15
834.991	1337.15
835.241	1536.15
835.49	1350.15
835.74	1226.15
835.99	1326.15
836.239	1439.15
836.489	1466.15
836.738	1323.15
836.988	1198.15
837.237	1320.15
837.487	1440.15
837.736	1311.15
837.986	1272.15
838.235	1344.15
838.485	1325.15
838.734	1275.15
838.984	1326.15
839.233	1300.15
839.483	1242.15
839.732	1223.15
839.982	1300.15
840.231	1359.15
840.481	1362.15
840.73	1207.15
840.979	1288.15
841.229	1330.15
841.478	1274.15
841.728	1150.15
841.977	1130.15
842.227	1201.15
842.476	1187.15
842.725	1162.15
842.975	1210.15
843.224	1322.15
843.474	1351.15
843.723	1208.15
843.972	1211.15
844.222	1244.15
844.471	1298.15
844.72	1197.15
844.97	1222.15
845.219	1318.15
845.468	1271.15
845.718	1194.15
845.967	1228.15
846.216	1281.15
846.466	1326.15
846.715	1170.15
846.964	1191.15
847.214	1203.15
847.463	1165.15
847.712	1183.15
847.961	1132.15
848.211	1195.15
848.46	1188.15
848.709	1148.15
848.958	1129.15
849.208	1201.15
849.457	1179.15
849.706	1171.15
849.955	1138.15
850.205	1123.15
850.454	1269.15
850.703	1289.15
850.952	1199.15
851.201	1228.15
851.451	1154.15
851.7	1183.15
851.949	1082.15
852.198	1168.15
852.447	1140.15
852.696	1047.15
852.946	1085.15
853.195	1193.15
853.444	1212.15
853.693	1029.15
853.942	1010.15
854.191	1107.15
854.44	1116.15
854.689	1082.15
854.939	1032.15
855.188	1035.15
855.437	1029.15
855.686	996.15
855.935	1054.15
856.184	1119.15
856.433	1159.15
856.682	1105.15
856.931	1092.15
857.18	1111.15
857.429	1028.15
857.678	968.15
857.927	1012.15
858.176	1040.15
858.425	1010.15
858.674	943.15
858.924	1030.15
859.173	1040.15
859.422	1068.15
859.671	926.15
859.92	982.15
860.169	1058.15
860.417	1099.15
860.666	1021.15
860.915	959.15
861.164	999.15
861.413	940.15
861.662	864.15
861.911	915.15
862.16	1057.15
862.409	1026.15
862.658	858.15
862.907	937.15
863.156	1031.15
863.405	1001.15
863.654	900.15
863.903	846.15
864.151	939.15
864.4	1002.15
864.649	945.15
864.898	981.15
865.147	1004.15
865.396	1000.15
865.645	893.15
865.894	929.15
866.142	1055.15
866.391	978.15
866.64	847.15
866.889	957.15
867.138	1113.15
867.387	992.15
867.635	870.15
867.884	936.15
868.133	1054.15
868.382	940.15
868.631	802.15
868.879	825.15
869.128	952.15
869.377	911.15
869.626	844.15
869.874	862.15
870.123	946.15
870.372	890.15
870.621	797.15
870.869	842.15
871.118	918.15
871.367	928.15
871.616	776.15
871.864	883.15
872.113	951.15
872.362	891.15
872.61	845.15
872.859	892.15
873.108	935.15
873.357	858.15
873.605	773.15
873.854	783.15
874.103	800.15
874.351	830.15
874.6	836.15
874.848	848.15
875.097	897.15
875.346	871.15
875.594	767.15
875.843	863.15
876.092	1001.15
876.34	872.15
876.589	773.15
876.837	694.15
877.086	784.15
877.335	854.15
877.583	795.15
877.832	849.15
878.08	963.15
878.329	849.15
878.578	758.15
878.826	774.15
879.075	854.15
879.323	861.15
879.572	781.15
879.82	896.15
880.069	838.15
880.317	862.15
880.566	728.15
880.814	824.15
881.063	932.15
881.311	846.15
881.56	844.15
881.808	745.15
882.057	824.15
882.305	800.15
882.554	790.15
882.802	713.15
883.051	759.15
883.299	762.15
883.548	702.15
883.796	803.15
884.045	811.15
884.293	721.15
884.541	606.15
884.79	617.15
885.038	713.15
885.287	717.15
885.535	755.15
885.783	758.15
886.032	710.15
886.28	658.15
886.529	602.15
886.777	695.15
887.025	852.15
887.274	718.15
887.522	636.15
887.77	637.15
888.019	662.15
888.267	652.15
888.516	583.15
888.764	620.15
889.012	692.15
889.261	669.15
889.509	587.15
889.757	614.15
890.005	686.15
890.254	622.15
890.502	647.15
890.75	860.15
890.999	834.15
891.247	716.15
891.495	690.15
891.743	669.15
891.992	814.15
892.24	695.15
892.488	601.15
892.737	622.15
892.985	679.15
893.233	676.15
893.481	616.15
893.729	600.15
893.978	777.15
894.226	749.15
894.474	607.15
894.722	602.15
894.97	659.15
895.219	630.15
895.467	648.15
895.715	684.15
895.963	663.15
896.211	610.15
896.46	499.15
896.708	608.15
896.956	702.15
897.204	775.15
897.452	671.15
897.7	607.15
897.948	678.15
898.197	622.15
898.445	563.15
898.693	584.15
898.941	649.15
899.189	634.15
899.437	584.15
899.685	670.15
899.933	618.15
900.181	611.15
900.43	522.15
900.678	552.15
900.926	609.15
901.174	593.15
901.422	530.15
901.67	563.15
901.918	618.15
902.166	570.15
902.414	444.15
902.662	494.15
902.91	599.15
903.158	603.15
903.406	524.15
903.654	542.15
903.902	583.15
904.15	545.15
904.398	435.15
904.646	538.15
904.894	619.15
905.142	630.15
905.39	558.15
905.638	483.15
905.886	515.15
906.134	497.15
906.382	497.15
906.63	481.15
906.878	571.15
907.126	546.15
907.374	480.15
907.622	480.15
907.869	581.15
908.117	558.15
908.365	496.15
908.613	464.15
908.861	478.15
909.109	422.15
909.357	396.15
909.605	474.15
909.853	550.15
910.1	511.15
910.348	352.15
910.596	381.15
910.844	575.15
911.092	607.15
911.34	484.15
911.588	493.15
911.835	554.15
912.083	532.15
912.331	518.15
912.579	553.15
912.827	697.15
913.075	541.15
913.322	419.15
913.57	438.15
913.818	584.15
914.066	510.15
914.313	441.15
914.561	504.15
914.809	503.15
915.057	444.15
915.305	444.15
915.552	452.15
915.8	554.15
916.048	461.15
916.296	377.15
916.543	489.15
916.791	567.15
917.039	498.15
917.286	376.15
917.534	403.15
917.782	528.15
918.03	453.15
918.277	328.15
918.525	347.15
918.773	452.15
919.02	427.15
919.268	379.15
919.516	418.15
919.763	408.15
920.011	421.15
920.259	330.15
920.506	431.15
920.754	517.15
921.002	488.15
921.249	439.15
921.497	401.15
921.745	438.15
921.992	451.15
922.24	314.15
922.487	423.15
922.735	596.15
922.983	504.15
923.23	417.15
923.478	359.15
923.725	433.15
923.973	458.15
924.221	428.15
924.468	467.15
924.716	438.15
924.963	396.15
925.211	344.15
925.458	418.15
925.706	526.15
925.953	564.15
926.201	366.15
926.448	337.15
926.696	430.15
926.944	403.15
927.191	352.15
927.439	359.15
927.686	388.15
927.934	423.15
928.181	313.15
928.429	303.15
928.676	364.15
928.923	298.15
929.171	255.15
929.418	414.15
929.666	467.15
929.913	450.15
930.161	250.15
930.408	279.15
930.656	375.15
930.903	400.15
931.151	278.15
931.398	314.15
931.645	414.15
931.893	318.15
932.14	295.15
932.388	321.15
932.635	474.15
932.882	526.15
933.13	389.15
933.377	310.15
933.625	399.15
933.872	320.15
934.119	261.15
934.367	309.15
934.614	309.15
934.861	290.15
935.109	276.15
935.356	321.15
935.603	378.15
935.851	310.15
936.098	259.15
936.345	368.15
936.593	392.15
936.84	345.15
937.087	220.15
937.335	286.15
937.582	342.15
937.829	339.15
938.077	304.15
938.324	293.15
938.571	358.15
938.818	278.15
939.066	247.15
939.313	216.15
939.56	352.15
939.807	371.15
940.055	233.15
940.302	276.15
940.549	439.15
940.796	352.15
941.044	285.15
941.291	312.15
941.538	462.15
941.785	345.15
942.033	280.15
942.28	353.15
942.527	357.15
942.774	333.15
943.021	177.15
943.269	230.15
943.516	332.15
943.763	342.15
944.01	288.15
944.257	351.15
944.504	407.15
944.752	347.15
944.999	302.15
945.246	242.15
945.493	310.15
945.74	295.15
945.987	226.15
946.234	308.15
946.482	388.15
946.729	257.15
946.976	214.15
947.223	227.15
947.47	371.15
947.717	376.15
947.964	368.15
948.211	338.15
948.458	371.15
948.705	299.15
948.952	206.15
949.2	284.15
949.447	406.15
949.694	399.15
949.941	237.15
950.188	209.15
950.435	230.15
950.682	265.15
950.929	148.15
951.176	196.15
951.423	352.15
951.67	328.15
951.917	290.15
952.164	295.15
952.411	359.15
952.658	414.15
952.905	239.15
953.152	155.15
953.399	287.15
953.646	311.15
953.893	189.15
954.14	219.15
954.387	270.15
954.634	260.15
954.881	204.15
955.128	265.15
955.375	233.15
955.622	239.15
955.869	246.15
956.115	212.15
956.362	322.15
956.609	282.15
956.856	175.15
957.103	182.15
957.35	300.15
957.597	309.15
957.844	231.15
958.091	228.15
958.338	298.15
958.585	236.15
958.831	72.15
959.078	139.15
959.325	296.15
959.572	186.15
959.819	116.15
960.066	95.15
960.313	209.15
960.559	211.15
960.806	93.15
961.053	130.15
961.3	287.15
961.547	316.15
961.794	106.15
962.04	276.15
962.287	303.15
962.534	157.15
962.781	146.15
963.028	218.15
963.274	296.15
963.521	205.15
963.768	139.15
964.015	188.15
964.262	356.15
964.508	196.15
964.755	99.15
965.002	123.15
965.249	182.15
965.495	115.15
965.742	80.15
965.989	102.15
966.236	224.15
966.482	166.15
966.729	113.15
966.976	85.15
967.222	159.15
967.469	167.15
967.716	96.15
967.963	85.15
968.209	180.15
968.456	153.15
968.703	46.15
968.949	164.15
969.196	321.15
969.443	322.15
969.689	82.15
969.936	63.15
970.183	165.15
970.429	107.15
970.676	70.15
970.923	150.15
971.169	203.15
971.416	122.15
971.663	83.15
971.909	136.15
972.156	201.15
972.402	193.15
972.649	135.15
972.896	163.15
973.142	176.15
973.389	177.15
973.635	80.15
973.882	195.15
974.129	271.15
974.375	158.15
974.622	68.15
974.868	66.15
975.115	142.15
975.361	99.15
975.608	83.15
975.855	189.15
976.101	228.15
976.348	163.15
976.594	96.15
976.841	149.15
977.087	158.15
977.334	190.15
977.58	38.15
977.827	35.15
978.073	184.15
978.32	155.15
978.566	23.15
978.813	104.15
979.059	134.15
979.306	132.15
979.552	40.15
979.799	111.15
980.045	109.15
980.292	116.15
980.538	59.15
980.785	43.15
981.031	70.15
981.278	64.15
981.524	-14.85
981.771	154.15
982.017	299.15
982.263	200.15
982.51	40.15
982.756	97.15
983.003	184.15
983.249	120.15
983.495	25.15
983.742	15.15
983.988	95.15
984.235	130.15
984.481	15.15
984.727	40.15
984.974	159.15
985.22	152.15
985.467	74.15
985.713	68.15
985.959	198.15
986.206	158.15
986.452	69.15
986.698	122.15
986.945	114.15
987.191	164.15
987.437	172.15
987.684	108.15
987.93	245.15
988.176	174.15
988.423	9.15
988.669	85.15
988.915	248.15
989.162	94.15
989.408	4.15
989.654	69.15
989.901	110.15
990.147	104.15
990.393	95.15
990.639	140.15
990.886	153.15
991.132	222.15
991.378	160.15
991.625	258.15
991.871	222.15
992.117	147.15
992.363	94.15
992.61	111.15
992.856	229.15
993.102	79.15
993.348	19.15
993.594	63.15
993.841	101.15
994.087	234.15
994.333	99.15
994.579	80.15
994.826	120.15
995.072	124.15
995.318	-70.85
995.564	-6.85
995.81	133.15
996.057	89.15
996.303	-19.85
996.549	3.15
996.795	110.15
997.041	78.15
997.287	43.15
997.534	27.15
997.78	90.15
998.026	115.15
998.272	-1.85
998.518	-16.85
998.764	151.15
999.01	169.15
999.256	62.15
999.503	20.15
999.749	38.15
999.995	3.15
1000.241	-7.85
1000.487	59.15
1000.733	115.15
1000.979	82.15
1001.225	35.15
1001.471	98.15
1001.718	139.15
1001.964	180.15
1002.21	-2.85
1002.456	21.15
1002.702	205.15
1002.948	100.15
1003.194	13.15
1003.44	-21.85
1003.686	66.15
1003.932	25.15
1004.178	-11.85
1004.424	48.15
1004.67	208.15
1004.916	175.15
1005.162	62.15
1005.408	31.15
1005.654	165.15
1005.9	-9.85
1006.146	-71.85
1006.392	10.15
1006.638	98.15
1006.884	57.15
1007.13	-7.85
1007.376	-30.85
1007.622	140.15
1007.868	141.15
1008.114	10.15
1008.36	83.15
1008.606	125.15
1008.852	135.15
1009.098	76.15
1009.344	109.15
1009.59	91.15
1009.836	-52.85
1010.082	-115.85
1010.328	9.15
1010.574	78.15
1010.82	-8.85
1011.065	-75.85
1011.311	-59.85
1011.557	60.15
1011.803	11.15
1012.049	-55.85
1012.295	1.15
1012.541	56.15
1012.787	43.15
1013.033	-83.85
1013.278	-97.85
1013.524	47.15
1013.77	117.15
1014.016	23.15
1014.262	23.15
1014.508	130.15
1014.754	-43.85
1015	-60.85
1015.245	110.15
1015.491	128.15
1015.737	92.15
1015.983	-46.85
1016.229	-67.85
1016.475	42.15
1016.72	163.15
1016.966	180.15
1017.212	85.15
1017.458	138.15
1017.704	51.15
1017.949	-81.85
1018.195	93.15
1018.441	183.15
1018.687	138.15
1018.933	-8.85
1019.178	-17.85
1019.424	136.15
1019.67	160.15
1019.916	-40.85
1020.161	-17.85
1020.407	52.15
1020.653	11.15
1020.899	-58.85
1021.144	-5.85
1021.39	87.15
1021.636	-26.85
1021.882	-106.85
1022.127	4.15
1022.373	164.15
1022.619	102.15
1022.865	0.15
1023.11	-7.85
1023.356	120.15
1023.602	41.15
1023.847	-15.85
1024.093	27.15
1024.339	-5.85
1024.584	-21.85
1024.83	-36.85
1025.076	-31.85
1025.321	99.15
1025.567	60.15
1025.813	-51.85
1026.058	21.15
1026.304	74.15
1026.55	3.15
1026.795	-14.85
1027.041	8.15
1027.287	74.15
1027.532	79.15
1027.778	35.15
1028.024	6.15
1028.269	47.15
1028.515	-29.85
1028.76	-100.85
1029.006	-10.85
1029.252	104.15
1029.497	14.15
1029.743	-7.85
1029.989	-61.85
1030.234	74.15
1030.48	145.15
1030.725	-46.85
1030.971	-13.85
1031.216	120.15
1031.462	31.15
1031.708	-109.85
1031.953	-57.85
1032.199	22.15
1032.444	40.15
1032.69	-0.85
1032.935	-29.85
1033.181	88.15
1033.426	-18.85
1033.672	-156.85
1033.918	-88.85
1034.163	16.15
1034.409	7.15
1034.654	-53.85
1034.9	42.15
1035.145	104.15
1035.391	16.15
1035.636	-95.85
1035.882	-22.85
1036.127	-29.85
1036.373	-60.85
1036.618	-154.85
1036.864	-24.85
1037.109	112.15
1037.355	3.15
1037.6	-76.85
1037.845	-37.85
1038.091	158.15
1038.336	110.15
1038.582	122.15
1038.827	195.15
1039.073	42.15
1039.318	-45.85
1039.564	-133.85
1039.809	-63.85
1040.055	102.15
1040.3	107.15
1040.545	-57.85
1040.791	-56.85
1041.036	-13.85
1041.282	25.15
1041.527	96.15
1041.772	-94.85
1042.018	-36.85
1042.263	0.15
1042.509	-144.85
1042.754	-97.85
1042.999	41.15
1043.245	15.15
1043.49	-165.85
1043.736	-84.85
1043.981	13.15
1044.226	14.15
1044.472	-5.85
1044.717	2.15
1044.962	94.15
1045.208	17.15
1045.453	-216.85
1045.698	-126.85
1045.944	82.15
1046.189	18.15
1046.434	-70.85
1046.68	-47.85
1046.925	130.15
1047.17	-32.85
1047.416	-203.85
1047.661	-92.85
1047.906	53.15
1048.152	40.15
1048.397	-54.85
1048.642	-65.85
1048.887	126.15
1049.133	132.15
1049.378	-45.85
1049.623	-86.85
1049.869	40.15
1050.114	-12.85
1050.359	-95.85
1050.604	-21.85
1050.85	136.15
1051.095	1.15
1051.34	-100.85
1051.585	-34.85
1051.831	147.15
1052.076	11.15
1052.321	-194.85
1052.566	-90.85
1052.812	88.15
1053.057	-2.85
1053.302	-74.85
1053.547	5.15
1053.792	73.15
1054.038	56.15
1054.283	-139.85
1054.528	-49.85
1054.773	8.15
1055.018	13.15
1055.264	-104.85
1055.509	-127.85
1055.754	1.15
1055.999	-63.85
1056.244	-145.85
1056.49	-68.85
1056.735	12.15
1056.98	-43.85
1057.225	-131.85
1057.47	59.15
1057.715	-2.85
1057.96	-97.85
1058.206	-135.85
1058.451	-33.85
1058.696	83.15
1058.941	20.15
1059.186	-139.85
1059.431	-116.85
1059.676	92.15
1059.922	28.15
1060.167	120.15
1060.412	295.15
1060.657	64.15
1060.902	-4.85
1061.147	-175.85
1061.392	-101.85
1061.637	37.15
1061.882	-24.85
1062.127	-178.85
1062.373	-167.85
1062.618	94.15
1062.863	124.15
1063.108	-73.85
1063.353	-130.85
1063.598	-39.85
1063.843	-67.85
1064.088	-133.85
1064.333	-130.85
1064.578	21.15
1064.823	45.15
1065.068	-193.85
1065.313	-120.85
1065.558	39.15
1065.803	49.15
1066.048	-137.85
1066.293	-135.85
1066.538	70.15
1066.783	-4.85
1067.028	-177.85
1067.273	-153.85
1067.518	34.15
1067.763	-36.85
1068.008	-195.85
1068.253	-116.85
1068.498	67.15
1068.743	-6.85
1068.988	-152.85
1069.233	-144.85
1069.478	59.15
1069.723	133.15
1069.968	-66.85
1070.213	-17.85
1070.458	76.15
1070.703	-18.85
1070.948	-184.85
1071.193	-79.85
1071.438	52.15
1071.683	74.15
1071.928	-29.85
1072.173	-54.85
1072.418	10.15
1072.663	-43.85
1072.908	-153.85
1073.152	-87.85
1073.397	67.15
1073.642	-46.85
1073.887	-91.85
1074.132	27.15
1074.377	17.15
1074.622	-8.85
1074.867	-130.85
1075.112	-73.85
1075.357	125.15
1075.601	-32.85
1075.846	-84.85
1076.091	26.15
1076.336	54.15
1076.581	-74.85
1076.826	-167.85
1077.071	-79.85
1077.315	173.15
1077.56	83.15
1077.805	-134.85
1078.05	-90.85
1078.295	-31.85
1078.54	-62.85
1078.785	-174.85
1079.029	-120.85
1079.274	62.15
1079.519	-90.85
1079.764	-166.85
1080.009	-57.85
1080.253	15.15
1080.498	-77.85
1080.743	-224.85
1080.988	-76.85
1081.233	144.15
1081.478	65.15
1081.722	-135.85
1081.967	-6.85
1082.212	156.15
1082.457	33.15
1082.701	-103.85
1082.946	-86.85
1083.191	37.15
1083.436	-62.85
1083.681	-217.85
1083.925	-104.85
1084.17	-9.85
1084.415	19.15
1084.66	-197.85
1084.904	-97.85
1085.149	8.15
1085.394	-45.85
1085.639	-221.85
1085.883	-106.85
1086.128	144.15
1086.373	173.15
1086.617	-58.85
1086.862	-141.85
1087.107	-15.85
1087.352	-67.85
1087.596	-153.85
1087.841	-19.85
1088.086	27.15
1088.33	8.15
1088.575	-229.85
1088.82	-80.85
1089.064	92.15
1089.309	-69.85
1089.554	-187.85
1089.798	-157.85
1090.043	55.15
1090.288	-11.85
1090.533	-199.85
1090.777	-126.85
1091.022	16.15
1091.266	50.15
1091.511	-122.85
1091.756	-54.85
1092	100.15
1092.245	90.15
1092.49	-149.85
1092.734	-102.85
1092.979	74.15
1093.224	-16.85
1093.468	-172.85
1093.713	-125.85
1093.957	8.15
1094.202	-37.85
1094.447	-217.85
1094.691	-88.85
1094.936	55.15
1095.181	2.15
1095.425	-175.85
1095.67	-146.85
1095.914	13.15
1096.159	1.15
1096.403	-144.85
1096.648	-53.85
1096.893	52.15
1097.137	-77.85
1097.382	-222.85
1097.626	-149.85
1097.871	5.15
1098.115	-37.85
1098.36	-187.85
1098.605	-113.85
1098.849	-38.85
1099.094	-115.85
1099.338	-185.85
1099.583	-89.85
1099.827	138.15
1100.072	28.15
1100.316	-160.85
1100.561	-99.85
1100.805	45.15
1101.05	24.15
1101.294	-179.85
1101.539	-173.85
1101.783	-3.85
1102.028	-6.85
1102.273	-143.85
1102.517	-78.85
1102.761	55.15
1103.006	-71.85
1103.25	-279.85
1103.495	-166.85
1103.739	47.15
1103.984	86.15
1104.228	-122.85
1104.473	-30.85
1104.717	38.15
1104.962	-2.85
1105.206	-127.85
1105.451	-143.85
1105.695	19.15
1105.94	-5.85
1106.184	-150.85
1106.429	-105.85
1106.673	-5.85
1106.917	74.15
1107.162	-166.85
1107.406	-6.85
1107.651	152.15
1107.895	-76.85
1108.14	-200.85
1108.384	-94.85
1108.628	125.15
1108.873	116.15
1109.117	-127.85
1109.362	-108.85
1109.606	-25.85
1109.85	-24.85
1110.095	-160.85
1110.339	-92.85
1110.584	98.15
1110.828	47.15
1111.072	-99.85
1111.317	-143.85
1111.561	-29.85
1111.806	-33.85
1112.05	-180.85
1112.294	-79.85
1112.539	30.15
1112.783	-1.85
1113.027	-111.85
1113.272	-122.85
1113.516	-17.85
1113.76	-50.85
1114.005	-150.85
1114.249	-81.85
1114.493	71.15
1114.738	84.15
1114.982	-51.85
1115.226	-73.85
1115.471	6.15
1115.715	-12.85
1115.959	-192.85
1116.204	-170.85
1116.448	3.15
1116.692	-97.85
1116.937	-172.85
1117.181	-7.85
1117.425	-18.85
1117.67	-73.85
1117.914	-152.85
1118.158	-80.85
1118.402	138.15
1118.647	54.15
1118.891	-93.85
1119.135	-51.85
1119.38	95.15
1119.624	13.15
1119.868	-131.85
1120.112	-163.85
1120.357	-67.85
1120.601	-119.85
1120.845	-213.85
1121.089	-142.85
1121.334	34.15
