Data from HR4C21111__40__10-12-15-268.txt Node

Date: Mon Feb 22 10:12:15 IST 2021
User: Kapil
Spectrometer: HR4C2111
Trigger mode: 4
Integration Time (sec): 2.300000E0
Scans to average: 1
Electric dark correction enabled: true
Nonlinearity correction enabled: false
Boxcar width: 0
XAxis mode: Wavelengths
Number of Pixels in Spectrum: 3648
>>>>>Begin Spectral Data<<<<<
189.472	-426.23
189.745	-426.23
190.017	-426.23
190.289	-470.23
190.561	-298.23
190.834	-21.23
191.106	-112.23
191.378	26.77
191.65	10.77
191.923	-140.23
192.195	-103.23
192.467	119.77
192.739	101.77
193.011	-21.23
193.284	70.77
193.556	162.77
193.828	4.77
194.1	-99.23
194.372	-123.23
194.644	53.77
194.916	56.77
195.188	-167.23
195.46	-82.23
195.732	56.77
196.004	-22.23
196.276	-111.23
196.548	-57.23
196.82	64.77
197.092	56.77
197.364	-135.23
197.636	-96.23
197.908	26.77
198.18	-43.23
198.452	-100.23
198.724	-50.23
198.996	50.77
199.268	85.77
199.54	-26.23
199.811	-110.23
200.083	93.77
200.355	10.77
200.627	-204.23
200.899	-71.23
201.171	62.77
201.442	-60.23
201.714	-188.23
201.986	-105.23
202.258	55.77
202.529	104.77
202.801	-0.23
203.073	64.77
203.345	185.77
203.616	1.77
203.888	-146.23
204.16	-155.23
204.431	62.77
204.703	-23.23
204.974	-144.23
205.246	7.77
205.518	173.77
205.789	4.77
206.061	-137.23
206.332	-100.23
206.604	4.77
206.876	89.77
207.147	134.77
207.419	6.77
207.69	111.77
207.962	-36.23
208.233	-183.23
208.505	9.77
208.776	188.77
209.047	103.77
209.319	-128.23
209.59	-103.23
209.862	127.77
210.133	41.77
210.404	-151.23
210.676	-105.23
210.947	72.77
211.219	67.77
211.49	-135.23
211.761	-61.23
212.033	21.77
212.304	-49.23
212.575	-199.23
212.846	-96.23
213.118	14.77
213.389	-71.23
213.66	-101.23
213.931	-49.23
214.203	31.77
214.474	-43.23
214.745	-118.23
215.016	121.77
215.287	423.77
215.559	53.77
215.83	-120.23
216.101	-76.23
216.372	-7.23
216.643	70.77
216.914	-0.23
217.185	-81.23
217.456	153.77
217.727	15.77
217.998	-150.23
218.269	-48.23
218.54	35.77
218.811	-8.23
219.082	-105.23
219.353	-84.23
219.624	-11.23
219.895	-40.23
220.166	-134.23
220.437	-122.23
220.708	77.77
220.979	-16.23
221.25	-135.23
221.521	-83.23
221.792	25.77
222.063	72.77
222.334	38.77
222.604	169.77
222.875	165.77
223.146	80.77
223.417	-175.23
223.688	-31.23
223.958	121.77
224.229	-59.23
224.5	-196.23
224.771	-88.23
225.041	76.77
225.312	41.77
225.583	-109.23
225.854	-64.23
226.124	88.77
226.395	-11.23
226.666	-138.23
226.936	-114.23
227.207	61.77
227.478	-51.23
227.748	-111.23
228.019	48.77
228.289	250.77
228.56	-42.23
228.831	-46.23
229.101	51.77
229.372	64.77
229.642	-18.23
229.913	-158.23
230.183	-130.23
230.454	-12.23
230.724	-7.23
230.995	-104.23
231.265	-71.23
231.536	60.77
231.806	40.77
232.076	-112.23
232.347	-127.23
232.617	49.77
232.888	25.77
233.158	-75.23
233.428	-115.23
233.699	-8.23
233.969	-47.23
234.239	-152.23
234.51	-88.23
234.78	54.77
235.05	-25.23
235.321	-132.23
235.591	-75.23
235.861	41.77
236.131	-63.23
236.402	-182.23
236.672	-97.23
236.942	31.77
237.212	33.77
237.483	-51.23
237.753	3.77
238.023	151.77
238.293	17.77
238.563	-84.23
238.833	-118.23
239.103	55.77
239.374	-27.23
239.644	-150.23
239.914	-44.23
240.184	117.77
240.454	-6.23
240.724	-141.23
240.994	-52.23
241.264	24.77
241.534	45.77
241.804	-27.23
242.074	-93.23
242.344	-41.23
242.614	-61.23
242.884	-191.23
243.154	-127.23
243.424	40.77
243.694	72.77
243.964	-99.23
244.234	-84.23
244.503	120.77
244.773	4.77
245.043	-219.23
245.313	-122.23
245.583	135.77
245.853	87.77
246.123	-185.23
246.392	-115.23
246.662	-3.23
246.932	-24.23
247.202	-188.23
247.471	-62.23
247.741	268.77
248.011	107.77
248.281	-160.23
248.55	-104.23
248.82	56.77
249.09	-22.23
249.359	-92.23
249.629	-78.23
249.899	31.77
250.168	43.77
250.438	-15.23
250.708	-108.23
250.977	76.77
251.247	53.77
251.516	-117.23
251.786	-51.23
252.055	118.77
252.325	20.77
252.595	-104.23
252.864	-62.23
253.134	49.77
253.403	-29.23
253.673	-185.23
253.942	-119.23
254.212	26.77
254.481	-14.23
254.75	-152.23
255.02	-90.23
255.289	89.77
255.559	1.77
255.828	-115.23
256.097	-29.23
256.367	23.77
256.636	-71.23
256.906	-143.23
257.175	-17.23
257.444	244.77
257.714	61.77
257.983	-86.23
258.252	-47.23
258.521	-4.23
258.791	37.77
259.06	-110.23
259.329	-51.23
259.598	49.77
259.868	-20.23
260.137	-132.23
260.406	-29.23
260.675	80.77
260.944	9.77
261.214	-151.23
261.483	-46.23
261.752	184.77
262.021	7.77
262.29	-178.23
262.559	-133.23
262.828	10.77
263.097	-56.23
263.366	-214.23
263.635	-92.23
263.905	129.77
264.174	-0.23
264.443	-218.23
264.712	-111.23
264.981	43.77
265.25	-39.23
265.519	-146.23
265.788	-143.23
266.057	36.77
266.325	74.77
266.594	-48.23
266.863	-122.23
267.132	3.77
267.401	-15.23
267.67	-204.23
267.939	-154.23
268.208	22.77
268.477	65.77
268.745	-127.23
269.014	-104.23
269.283	138.77
269.552	41.77
269.821	-112.23
270.089	-20.23
270.358	-11.23
270.627	-34.23
270.896	-139.23
271.164	-168.23
271.433	9.77
271.702	84.77
271.971	-159.23
272.239	-150.23
272.508	36.77
272.777	-31.23
273.045	-23.23
273.314	-41.23
273.583	85.77
273.851	-34.23
274.12	-168.23
274.388	-144.23
274.657	-12.23
274.926	-16.23
275.194	-167.23
275.463	-79.23
275.731	14.77
276	154.77
276.268	339.77
276.537	-105.23
276.805	4.77
277.074	31.77
277.342	-177.23
277.611	-107.23
277.879	99.77
278.148	21.77
278.416	-157.23
278.684	-119.23
278.953	-33.23
279.221	-47.23
279.49	-202.23
279.758	-116.23
280.026	-21.23
280.295	-31.23
280.563	-143.23
280.831	726.77
281.1	1839.77
281.368	170.77
281.636	-124.23
281.904	-130.23
282.173	-20.23
282.441	-49.23
282.709	-101.23
282.977	13.77
283.246	39.77
283.514	-49.23
283.782	-72.23
284.05	23.77
284.318	58.77
284.587	-26.23
284.855	-136.23
285.123	-67.23
285.391	69.77
285.659	45.77
285.927	-156.23
286.195	-75.23
286.463	37.77
286.732	-31.23
287	-140.23
287.268	-67.23
287.536	13.77
287.804	-41.23
288.072	-145.23
288.34	-91.23
288.608	55.77
288.876	-29.23
289.144	-132.23
289.412	-20.23
289.68	42.77
289.948	-54.23
290.215	-130.23
290.483	-96.23
290.751	110.77
291.019	99.77
291.287	-172.23
291.555	-129.23
291.823	13.77
292.091	-29.23
292.358	-81.23
292.626	-26.23
292.894	78.77
293.162	44.77
293.43	-121.23
293.697	-83.23
293.965	41.77
294.233	-50.23
294.501	-170.23
294.768	-68.23
295.036	65.77
295.304	39.77
295.572	-149.23
295.839	-106.23
296.107	99.77
296.375	-13.23
296.642	-138.23
296.91	-116.23
297.178	46.77
297.445	179.77
297.713	96.77
297.98	-97.23
298.248	-44.23
298.516	-44.23
298.783	-130.23
299.051	-132.23
299.318	-0.23
299.586	-45.23
299.853	-117.23
300.121	-109.23
300.388	32.77
300.656	-17.23
300.923	-155.23
301.191	-52.23
301.458	41.77
301.726	-34.23
301.993	-159.23
302.26	-103.23
302.528	48.77
302.795	-18.23
303.063	-88.23
303.33	-68.23
303.597	13.77
303.865	15.77
304.132	-140.23
304.399	-135.23
304.667	-39.23
304.934	9.77
305.201	-124.23
305.469	-33.23
305.736	49.77
306.003	26.77
306.27	-84.23
306.538	-121.23
306.805	-12.23
307.072	-22.23
307.339	-68.23
307.606	-60.23
307.874	145.77
308.141	64.77
308.408	-146.23
308.675	-118.23
308.942	-55.23
309.209	-85.23
309.477	-140.23
309.744	-100.23
310.011	11.77
310.278	26.77
310.545	-30.23
310.812	-53.23
311.079	134.77
311.346	199.77
311.613	66.77
311.88	-39.23
312.147	-72.23
312.414	-53.23
312.681	-116.23
312.948	-33.23
313.215	121.77
313.482	76.77
313.749	-104.23
314.016	-203.23
314.283	-58.23
314.55	45.77
314.817	-115.23
315.083	-147.23
315.35	-86.23
315.617	-138.23
315.884	-156.23
316.151	44.77
316.418	141.77
316.684	-42.23
316.951	-194.23
317.218	-111.23
317.485	0.77
317.752	-60.23
318.018	-128.23
318.285	-9.23
318.552	12.77
318.819	-62.23
319.085	-145.23
319.352	-54.23
319.619	29.77
319.885	-46.23
320.152	-202.23
320.419	-112.23
320.685	6.77
320.952	-41.23
321.219	-73.23
321.485	71.77
321.752	11.77
322.019	-71.23
322.285	16.77
322.552	-11.23
322.818	108.77
323.085	-38.23
323.351	-147.23
323.618	-39.23
323.884	21.77
324.151	-71.23
324.417	-48.23
324.684	-95.23
324.95	-67.23
325.217	-152.23
325.483	-186.23
325.75	-36.23
326.016	-2.23
326.283	-38.23
326.549	-198.23
326.815	-80.23
327.082	90.77
327.348	10.77
327.615	-112.23
327.881	-41.23
328.147	124.77
328.414	114.77
328.68	-2.23
328.946	-45.23
329.212	24.77
329.479	-2.23
329.745	-111.23
330.011	-122.23
330.278	-0.23
330.544	-55.23
330.81	-57.23
331.076	-51.23
331.342	-51.23
331.609	-48.23
331.875	-115.23
332.141	-105.23
332.407	17.77
332.673	-10.23
332.94	-27.23
333.206	-62.23
333.472	35.77
333.738	66.77
334.004	-117.23
334.27	-25.23
334.536	-1.23
334.802	-43.23
335.068	-111.23
335.334	-14.23
335.6	0.77
335.866	-40.23
336.132	-170.23
336.398	-87.23
336.664	-33.23
336.93	-41.23
337.196	-110.23
337.462	-39.23
337.728	23.77
337.994	-43.23
338.26	-100.23
338.526	-46.23
338.792	-44.23
339.058	-57.23
339.324	-153.23
339.59	-26.23
339.856	41.77
340.121	-69.23
340.387	-137.23
340.653	71.77
340.919	139.77
341.185	53.77
341.45	-97.23
341.716	1.77
341.982	101.77
342.248	-72.23
342.514	-109.23
342.779	-3.23
343.045	23.77
343.311	-21.23
343.576	-90.23
343.842	-59.23
344.108	100.77
344.374	-8.23
344.639	-121.23
344.905	-112.23
345.171	26.77
345.436	-84.23
345.702	-111.23
345.967	51.77
346.233	71.77
346.499	2.77
346.764	-184.23
347.03	-79.23
347.295	-47.23
347.561	-24.23
347.826	-61.23
348.092	-138.23
348.357	-35.23
348.623	-34.23
348.888	-135.23
349.154	-90.23
349.419	42.77
349.685	-0.23
349.95	-94.23
350.216	-79.23
350.481	13.77
350.747	-60.23
351.012	-196.23
351.277	-136.23
351.543	8.77
351.808	-36.23
352.074	-202.23
352.339	-142.23
352.604	12.77
352.87	-30.23
353.135	-147.23
353.4	-80.23
353.666	-27.23
353.931	-45.23
354.196	-167.23
354.461	-161.23
354.727	6.77
354.992	-15.23
355.257	-164.23
355.522	-62.23
355.788	-25.23
356.053	20.77
356.318	-132.23
356.583	-135.23
356.848	62.77
357.113	180.77
357.379	-90.23
357.644	-135.23
357.909	44.77
358.174	72.77
358.439	-168.23
358.704	-106.23
358.969	8.77
359.234	23.77
359.499	-151.23
359.765	-91.23
360.03	15.77
360.295	11.77
360.56	-147.23
360.825	-82.23
361.09	117.77
361.355	-60.23
361.62	-107.23
361.885	-61.23
362.15	-90.23
362.415	-67.23
362.679	-134.23
362.944	7.77
363.209	17.77
363.474	36.77
363.739	-36.23
364.004	-133.23
364.269	-69.23
364.534	-35.23
364.799	-91.23
365.063	-82.23
365.328	15.77
365.593	15.77
365.858	-112.23
366.123	-119.23
366.387	15.77
366.652	-46.23
366.917	-151.23
367.182	-103.23
367.447	45.77
367.711	-15.23
367.976	-84.23
368.241	-24.23
368.505	36.77
368.77	-65.23
369.035	-78.23
369.299	-14.23
369.564	3.77
369.829	-89.23
370.093	-122.23
370.358	-135.23
370.623	-7.23
370.887	-1.23
371.152	-161.23
371.416	-92.23
371.681	-43.23
371.946	-124.23
372.21	-172.23
372.475	-38.23
372.739	-5.23
373.004	-59.23
373.268	-104.23
373.533	-48.23
373.797	-4.23
374.062	-24.23
374.326	-192.23
374.591	-90.23
374.855	-11.23
375.12	-87.23
375.384	-243.23
375.648	-155.23
375.913	-10.23
376.177	19.77
376.442	-137.23
376.706	-121.23
376.97	28.77
377.235	-24.23
377.499	-79.23
377.763	-94.23
378.028	-109.23
378.292	-62.23
378.556	-147.23
378.821	-199.23
379.085	-103.23
379.349	-176.23
379.614	-251.23
379.878	-131.23
380.142	60.77
380.406	-31.23
380.671	-58.23
380.935	67.77
381.199	184.77
381.463	40.77
381.727	-29.23
381.991	-67.23
382.256	-3.23
382.52	-64.23
382.784	-46.23
383.048	96.77
383.312	-4.23
383.576	-49.23
383.84	-166.23
384.104	-114.23
384.369	-15.23
384.633	-119.23
384.897	-231.23
385.161	-112.23
385.425	12.77
385.689	-66.23
385.953	-135.23
386.217	-158.23
386.481	-64.23
386.745	-37.23
387.009	-77.23
387.273	-115.23
387.537	-78.23
387.801	-55.23
388.064	-137.23
388.328	-59.23
388.592	0.77
388.856	-66.23
389.12	-128.23
389.384	-86.23
389.648	-34.23
389.912	48.77
390.176	49.77
390.439	138.77
390.703	-52.23
390.967	-79.23
391.231	-176.23
391.495	-126.23
391.758	-52.23
392.022	-52.23
392.286	-174.23
392.55	-145.23
392.813	-41.23
393.077	-2.23
393.341	-75.23
393.605	6.77
393.868	-33.23
394.132	-61.23
394.396	-91.23
394.659	26.77
394.923	-16.23
395.187	-79.23
395.45	-112.23
395.714	-67.23
395.978	-53.23
396.241	-39.23
396.505	-116.23
396.768	-57.23
397.032	-17.23
397.295	-13.23
397.559	-91.23
397.823	-123.23
398.086	12.77
398.35	-51.23
398.613	-178.23
398.877	-43.23
399.14	74.77
399.404	86.77
399.667	-26.23
399.931	-103.23
400.194	-7.23
400.457	-41.23
400.721	-89.23
400.984	11.77
401.248	-32.23
401.511	-58.23
401.775	-179.23
402.038	-133.23
402.301	51.77
402.565	-6.23
402.828	-203.23
403.091	-125.23
403.355	5.77
403.618	-7.23
403.881	-15.23
404.145	-63.23
404.408	14.77
404.671	-46.23
404.934	-25.23
405.198	15.77
405.461	13.77
405.724	23.77
405.987	-23.23
406.251	9.77
406.514	96.77
406.777	-54.23
407.04	-127.23
407.303	-116.23
407.567	9.77
407.83	72.77
408.093	-160.23
408.356	-61.23
408.619	22.77
408.882	61.77
409.145	-40.23
409.408	-77.23
409.672	17.77
409.935	-42.23
410.198	-163.23
410.461	-72.23
410.724	87.77
410.987	-16.23
411.25	-139.23
411.513	-24.23
411.776	47.77
412.039	-73.23
412.302	-124.23
412.565	-115.23
412.828	-64.23
413.091	-74.23
413.354	-134.23
413.617	-114.23
413.879	-50.23
414.142	-25.23
414.405	-152.23
414.668	-82.23
414.931	35.77
415.194	8.77
415.457	-136.23
415.72	-55.23
415.983	-1.23
416.245	2.77
416.508	-100.23
416.771	-144.23
417.034	2.77
417.297	10.77
417.559	-37.23
417.822	-70.23
418.085	-5.23
418.348	-6.23
418.61	-165.23
418.873	-134.23
419.136	-89.23
419.399	-115.23
419.661	-95.23
419.924	-97.23
420.187	-9.23
420.449	-41.23
420.712	-106.23
420.975	-160.23
421.237	-49.23
421.5	-41.23
421.762	-16.23
422.025	33.77
422.288	62.77
422.55	-110.23
422.813	-183.23
423.075	-90.23
423.338	-19.23
423.601	-10.23
423.863	-65.23
424.126	-64.23
424.388	50.77
424.651	-27.23
424.913	-94.23
425.176	-101.23
425.438	-51.23
425.701	34.77
425.963	-102.23
426.225	-164.23
426.488	-59.23
426.75	-90.23
427.013	-131.23
427.275	-79.23
427.538	-67.23
427.8	-78.23
428.062	-152.23
428.325	-63.23
428.587	40.77
428.849	-24.23
429.112	-98.23
429.374	-105.23
429.636	-62.23
429.899	11.77
430.161	-95.23
430.423	-68.23
430.686	22.77
430.948	-10.23
431.21	-147.23
431.472	-148.23
431.735	-59.23
431.997	-83.23
432.259	-35.23
432.521	-104.23
432.783	-19.23
433.046	-26.23
433.308	-138.23
433.57	-91.23
433.832	112.77
434.094	-73.23
434.356	-197.23
434.618	-105.23
434.881	-14.23
435.143	-82.23
435.405	-84.23
435.667	-40.23
435.929	-17.23
436.191	-63.23
436.453	-150.23
436.715	-46.23
436.977	14.77
437.239	-38.23
437.501	-177.23
437.763	-149.23
438.025	-6.23
438.287	-29.23
438.549	-127.23
438.811	-87.23
439.073	-51.23
439.335	-101.23
439.597	-128.23
439.859	-55.23
440.121	64.77
440.383	-109.23
440.645	-103.23
440.907	-57.23
441.168	-28.23
441.43	-91.23
441.692	-174.23
441.954	-125.23
442.216	-47.23
442.478	-81.23
442.74	-190.23
443.001	-65.23
443.263	80.77
443.525	4.77
443.787	-131.23
444.048	-107.23
444.31	-62.23
444.572	-77.23
444.834	-120.23
445.095	-96.23
445.357	44.77
445.619	-26.23
445.881	-232.23
446.142	-146.23
446.404	-78.23
446.666	-56.23
446.927	-118.23
447.189	-3.23
447.451	28.77
447.712	-36.23
447.974	-224.23
448.235	-186.23
448.497	-42.23
448.759	-116.23
449.02	-182.23
449.282	-192.23
449.543	-26.23
449.805	33.77
450.066	-197.23
450.328	-74.23
450.59	108.77
450.851	-26.23
451.113	-87.23
451.374	-144.23
451.636	-11.23
451.897	11.77
452.158	-55.23
452.42	47.77
452.681	78.77
452.943	-99.23
453.204	-198.23
453.466	-181.23
453.727	-95.23
453.988	-47.23
454.25	-173.23
454.511	-188.23
454.773	-68.23
455.034	73.77
455.295	-145.23
455.557	-173.23
455.818	-80.23
456.079	-58.23
456.341	54.77
456.602	35.77
456.863	23.77
457.124	-51.23
457.386	-165.23
457.647	-178.23
457.908	-75.23
458.169	20.77
458.431	-182.23
458.692	-181.23
458.953	-62.23
459.214	-94.23
459.476	-91.23
459.737	-15.23
459.998	38.77
460.259	-66.23
460.52	-165.23
460.781	-123.23
461.043	43.77
461.304	-67.23
461.565	-177.23
461.826	-122.23
462.087	-47.23
462.348	1.77
462.609	-130.23
462.87	-68.23
463.131	-86.23
463.392	-30.23
463.653	-100.23
463.914	-72.23
464.175	-27.23
464.436	-86.23
464.697	-164.23
464.958	-142.23
465.219	-34.23
465.48	-51.23
465.741	-68.23
466.002	-118.23
466.263	-58.23
466.524	-52.23
466.785	-135.23
467.046	-115.23
467.307	-40.23
467.568	-109.23
467.829	-107.23
468.089	-65.23
468.35	-22.23
468.611	-79.23
468.872	-159.23
469.133	-55.23
469.394	37.77
469.655	77.77
469.915	-113.23
470.176	-168.23
470.437	-124.23
470.698	-50.23
470.958	-121.23
471.219	-166.23
471.48	-95.23
471.741	-98.23
472.001	-171.23
472.262	-114.23
472.523	14.77
472.784	41.77
473.044	-111.23
473.305	-79.23
473.566	25.77
473.826	-0.23
474.087	-128.23
474.348	-109.23
474.608	-27.23
474.869	16.77
475.129	-119.23
475.39	-144.23
475.651	-49.23
475.911	-34.23
476.172	-166.23
476.432	-63.23
476.693	83.77
476.953	-4.23
477.214	-37.23
477.475	-27.23
477.735	-12.23
477.996	5.77
478.256	-190.23
478.517	-143.23
478.777	-47.23
479.038	5.77
479.298	-19.23
479.558	-106.23
479.819	54.77
480.079	56.77
480.34	-43.23
480.6	-128.23
480.861	-20.23
481.121	-47.23
481.381	-135.23
481.642	-54.23
481.902	-49.23
482.162	-118.23
482.423	-104.23
482.683	-24.23
482.943	2.77
483.204	-95.23
483.464	-118.23
483.724	-84.23
483.985	-30.23
484.245	6.77
484.505	-96.23
484.765	-30.23
485.026	30.77
485.286	15.77
485.546	-54.23
485.806	14.77
486.067	17.77
486.327	-109.23
486.587	-168.23
486.847	-151.23
487.107	-32.23
487.368	-5.23
487.628	-83.23
487.888	-89.23
488.148	-2.23
488.408	-85.23
488.668	-80.23
488.928	-26.23
489.188	-4.23
489.449	83.77
489.709	-76.23
489.969	-95.23
490.229	17.77
490.489	-28.23
490.749	-120.23
491.009	-170.23
491.269	-92.23
491.529	-84.23
491.789	-153.23
492.049	-60.23
492.309	60.77
492.569	-79.23
492.829	-110.23
493.089	-97.23
493.349	54.77
493.609	-41.23
493.869	-136.23
494.129	-72.23
494.389	42.77
494.648	-79.23
494.908	-172.23
495.168	-94.23
495.428	40.77
495.688	-37.23
495.948	-188.23
496.208	-164.23
496.467	-111.23
496.727	-50.23
496.987	-69.23
497.247	-88.23
497.507	-8.23
497.767	-2.23
498.026	-158.23
498.286	-56.23
498.546	133.77
498.806	12.77
499.065	55.77
499.325	-27.23
499.585	-29.23
499.845	-26.23
500.104	-39.23
500.364	65.77
500.624	7.77
500.883	-72.23
501.143	-27.23
501.403	29.77
501.662	101.77
501.922	-3.23
502.182	-153.23
502.441	-142.23
502.701	-70.23
502.96	41.77
503.22	-55.23
503.48	-85.23
503.739	-4.23
503.999	-58.23
504.258	-132.23
504.518	-56.23
504.777	47.77
505.037	-11.23
505.296	-97.23
505.556	-94.23
505.815	39.77
506.075	105.77
506.334	4.77
506.594	-153.23
506.853	-87.23
507.113	-93.23
507.372	-226.23
507.632	-143.23
507.891	-45.23
508.151	-0.23
508.41	-158.23
508.669	-121.23
508.929	29.77
509.188	-48.23
509.447	-98.23
509.707	-134.23
509.966	-50.23
510.226	-42.23
510.485	-90.23
510.744	-62.23
511.004	10.77
511.263	-78.23
511.522	-142.23
511.781	-96.23
512.041	26.77
512.3	-39.23
512.559	-6.23
512.818	12.77
513.078	6.77
513.337	-22.23
513.596	-91.23
513.855	-111.23
514.115	32.77
514.374	-16.23
514.633	-135.23
514.892	-159.23
515.151	-14.23
515.41	22.77
515.67	-89.23
515.929	-122.23
516.188	-13.23
516.447	-47.23
516.706	-148.23
516.965	-102.23
517.224	-51.23
517.483	-64.23
517.743	-108.23
518.002	-58.23
518.261	21.77
518.52	-41.23
518.779	-146.23
519.038	-121.23
519.297	-59.23
519.556	-76.23
519.815	-163.23
520.074	-159.23
520.333	-64.23
520.592	-78.23
520.851	-149.23
521.11	-37.23
521.369	118.77
521.628	-66.23
521.887	-152.23
522.145	-98.23
522.404	-43.23
522.663	-44.23
522.922	-189.23
523.181	-166.23
523.44	-25.23
523.699	-2.23
523.958	-164.23
524.217	-135.23
524.475	-107.23
524.734	-158.23
524.993	-170.23
525.252	-80.23
525.511	-26.23
525.769	-80.23
526.028	-155.23
526.287	-108.23
526.546	-37.23
526.805	-47.23
527.063	-140.23
527.322	-169.23
527.581	-81.23
527.839	-60.23
528.098	-67.23
528.357	-64.23
528.616	-41.23
528.874	-57.23
529.133	-99.23
529.392	-72.23
529.65	-35.23
529.909	-48.23
530.168	-153.23
530.426	-126.23
530.685	11.77
530.943	-22.23
531.202	-136.23
531.461	-129.23
531.719	13.77
531.978	-47.23
532.236	-135.23
532.495	-38.23
532.753	13.77
533.012	-86.23
533.271	-173.23
533.529	-161.23
533.788	-67.23
534.046	-150.23
534.305	-184.23
534.563	30.77
534.822	90.77
535.08	-7.23
535.338	-113.23
535.597	-66.23
535.855	3.77
536.114	-59.23
536.372	-142.23
536.631	-84.23
536.889	14.77
537.147	-27.23
537.406	-199.23
537.664	-86.23
537.923	-42.23
538.181	-29.23
538.439	-159.23
538.698	-30.23
538.956	-43.23
539.214	-63.23
539.473	-103.23
539.731	-59.23
539.989	0.77
540.248	-71.23
540.506	-140.23
540.764	-116.23
541.022	-28.23
541.281	0.77
541.539	-108.23
541.797	-157.23
542.055	-26.23
542.314	68.77
542.572	33.77
542.83	-118.23
543.088	-10.23
543.346	-72.23
543.604	-163.23
543.863	-66.23
544.121	75.77
544.379	-36.23
544.637	-148.23
544.895	-30.23
545.153	88.77
545.411	-56.23
545.67	-218.23
545.928	-186.23
546.186	-40.23
546.444	25.77
546.702	-69.23
546.96	-48.23
547.218	-14.23
547.476	-63.23
547.734	-126.23
547.992	-75.23
548.25	9.77
548.508	-69.23
548.766	-98.23
549.024	-86.23
549.282	-70.23
549.54	-47.23
549.798	-71.23
550.056	-88.23
550.314	5.77
550.572	-40.23
550.83	-182.23
551.088	-82.23
551.346	36.77
551.603	14.77
551.861	-142.23
552.119	-26.23
552.377	64.77
552.635	-40.23
552.893	-165.23
553.151	-166.23
553.409	-26.23
553.666	-20.23
553.924	-139.23
554.182	-154.23
554.44	6.77
554.698	57.77
554.955	-77.23
555.213	-77.23
555.471	4.77
555.729	-64.23
555.986	-217.23
556.244	-102.23
556.502	98.77
556.76	-30.23
557.017	-98.23
557.275	-39.23
557.533	90.77
557.79	41.77
558.048	-150.23
558.306	-84.23
558.563	2.77
558.821	-102.23
559.079	-122.23
559.336	-103.23
559.594	-39.23
559.852	-121.23
560.109	-170.23
560.367	-46.23
560.624	6.77
560.882	-49.23
561.14	-80.23
561.397	24.77
561.655	-54.23
561.912	-36.23
562.17	-145.23
562.427	-69.23
562.685	-30.23
562.942	-16.23
563.2	-131.23
563.457	-72.23
563.715	-5.23
563.972	29.77
564.23	-154.23
564.487	-162.23
564.745	-30.23
565.002	16.77
565.26	-91.23
565.517	-94.23
565.774	-14.23
566.032	9.77
566.289	-62.23
566.547	-38.23
566.804	78.77
567.061	60.77
567.319	-62.23
567.576	30.77
567.833	161.77
568.091	234.77
568.348	90.77
568.605	111.77
568.863	155.77
569.12	159.77
569.377	90.77
569.635	121.77
569.892	209.77
570.149	215.77
570.406	149.77
570.664	241.77
570.921	401.77
571.178	373.77
571.435	435.77
571.693	497.77
571.95	625.77
572.207	635.77
572.464	679.77
572.721	852.77
572.979	1044.77
573.236	1050.77
573.493	1009.77
573.75	1102.77
574.007	1323.77
574.264	1342.77
574.521	1407.77
574.779	1536.77
575.036	1751.77
575.293	1809.77
575.55	1839.77
575.807	1980.77
576.064	2201.77
576.321	2295.77
576.578	2281.77
576.835	2432.77
577.092	2761.77
577.349	2828.77
577.606	2755.77
577.863	2960.77
578.12	3184.77
578.377	3326.77
578.634	3221.77
578.891	3415.77
579.148	3633.77
579.405	3694.77
579.662	3732.77
579.919	3904.77
580.176	4071.77
580.433	4171.77
580.69	4176.77
580.947	4302.77
581.204	4471.77
581.461	4516.77
581.717	4493.77
581.974	4774.77
582.231	4897.77
582.488	4806.77
582.745	4691.77
583.002	4820.77
583.259	5068.77
583.515	5093.77
583.772	5008.77
584.029	5107.77
584.286	5262.77
584.543	5135.77
584.799	5180.77
585.056	5271.77
585.313	5402.77
585.57	5472.77
585.826	5341.77
586.083	5488.77
586.34	5698.77
586.597	5507.77
586.853	5373.77
587.11	5430.77
587.367	5588.77
587.623	5656.77
587.88	5628.77
588.137	5489.77
588.393	5635.77
588.65	5569.77
588.907	5461.77
589.163	5524.77
589.42	5620.77
589.677	5622.77
589.933	5532.77
590.19	5596.77
590.446	5709.77
590.703	5684.77
590.96	5491.77
591.216	5489.77
591.473	5613.77
591.729	5597.77
591.986	5614.77
592.242	5691.77
592.499	5854.77
592.755	5692.77
593.012	5546.77
593.268	5639.77
593.525	5648.77
593.781	5652.77
594.038	5606.77
594.294	5655.77
594.551	5660.77
594.807	5589.77
595.064	5560.77
595.32	5561.77
595.576	5645.77
595.833	5703.77
596.089	5556.77
596.346	5651.77
596.602	5739.77
596.858	5740.77
597.115	5591.77
597.371	5663.77
597.628	5685.77
597.884	5594.77
598.14	5530.77
598.397	5683.77
598.653	5768.77
598.909	5632.77
599.166	5511.77
599.422	5571.77
599.678	5637.77
599.934	5599.77
600.191	5497.77
600.447	5533.77
600.703	5602.77
600.959	5569.77
601.216	5392.77
601.472	5466.77
601.728	5601.77
601.984	5504.77
602.241	5441.77
602.497	5533.77
602.753	5711.77
603.009	5631.77
603.265	5484.77
603.521	5629.77
603.778	5719.77
604.034	5572.77
604.29	5438.77
604.546	5510.77
604.802	5630.77
605.058	5514.77
605.314	5407.77
605.571	5493.77
605.827	5481.77
606.083	5460.77
606.339	5419.77
606.595	5535.77
606.851	5606.77
607.107	5593.77
607.363	5412.77
607.619	5433.77
607.875	5627.77
608.131	5611.77
608.387	5383.77
608.643	5432.77
608.899	5501.77
609.155	5481.77
609.411	5468.77
609.667	5478.77
609.923	5482.77
610.179	5452.77
610.435	5308.77
610.691	5369.77
610.947	5502.77
611.203	5395.77
611.459	5383.77
611.714	5491.77
611.97	5568.77
612.226	5457.77
612.482	5297.77
612.738	5408.77
612.994	5619.77
613.25	5415.77
613.505	5255.77
613.761	5288.77
614.017	5403.77
614.273	5381.77
614.529	5239.77
614.785	5229.77
615.04	5324.77
615.296	5334.77
615.552	5294.77
615.808	5301.77
616.063	5400.77
616.319	5423.77
616.575	5244.77
616.831	5275.77
617.086	5466.77
617.342	5429.77
617.598	5277.77
617.854	5308.77
618.109	5397.77
618.365	5217.77
618.621	5091.77
618.876	5179.77
619.132	5272.77
619.388	5205.77
619.643	5020.77
619.899	5149.77
620.155	5224.77
620.41	5261.77
620.666	5088.77
620.921	5076.77
621.177	5262.77
621.433	5228.77
621.688	5105.77
621.944	5025.77
622.199	5061.77
622.455	5041.77
622.71	4955.77
622.966	5051.77
623.221	5011.77
623.477	4996.77
623.732	4994.77
623.988	4925.77
624.243	5025.77
624.499	4990.77
624.754	4811.77
625.01	4851.77
625.265	4947.77
625.521	5048.77
625.776	4900.77
626.032	4865.77
626.287	4889.77
626.543	4812.77
626.798	4744.77
627.053	4791.77
627.309	4864.77
627.564	4733.77
627.82	4726.77
628.075	4801.77
628.33	4735.77
628.586	4620.77
628.841	4484.77
629.096	4671.77
629.352	4739.77
629.607	4629.77
629.862	4536.77
630.118	4633.77
630.373	4596.77
630.628	4640.77
630.884	4486.77
631.139	4515.77
631.394	4643.77
631.649	4568.77
631.905	4476.77
632.16	4539.77
632.415	4672.77
632.67	4504.77
632.926	4348.77
633.181	4311.77
633.436	4491.77
633.691	4466.77
633.946	4277.77
634.202	4258.77
634.457	4393.77
634.712	4313.77
634.967	4225.77
635.222	4173.77
635.477	4226.77
635.733	4286.77
635.988	4157.77
636.243	4198.77
636.498	4312.77
636.753	4259.77
637.008	4095.77
637.263	4177.77
637.518	4237.77
637.773	4222.77
638.028	4165.77
638.283	4135.77
638.539	4248.77
638.794	4193.77
639.049	3996.77
639.304	4032.77
639.559	4090.77
639.814	4018.77
640.069	3944.77
640.324	3979.77
640.579	4075.77
640.834	4024.77
641.089	3927.77
641.344	3978.77
641.598	4180.77
641.853	4083.77
642.108	3867.77
642.363	3816.77
642.618	4002.77
642.873	3883.77
643.128	3754.77
643.383	3770.77
643.638	3901.77
643.893	3946.77
644.148	3862.77
644.402	3768.77
644.657	3865.77
644.912	3791.77
645.167	3777.77
645.422	3841.77
645.677	3783.77
645.931	3793.77
646.186	3815.77
646.441	3719.77
646.696	3647.77
646.951	3673.77
647.205	3659.77
647.46	3642.77
647.715	3672.77
647.97	3807.77
648.224	3908.77
648.479	3705.77
648.734	3802.77
648.989	3753.77
649.243	3648.77
649.498	3600.77
649.753	3650.77
650.007	3664.77
650.262	3563.77
650.517	3607.77
650.771	3651.77
651.026	3550.77
651.281	3461.77
651.535	3559.77
651.79	3568.77
652.045	3557.77
652.299	3482.77
652.554	3450.77
652.809	3525.77
653.063	3681.77
653.318	3553.77
653.572	3453.77
653.827	3581.77
654.081	3500.77
654.336	3382.77
654.591	3398.77
654.845	3523.77
655.1	3459.77
655.354	3411.77
655.609	3437.77
655.863	3531.77
656.118	3520.77
656.372	3385.77
656.627	3369.77
656.881	3476.77
657.136	3399.77
657.39	3290.77
657.645	3407.77
657.899	3528.77
658.153	3427.77
658.408	3340.77
658.662	3419.77
658.917	3485.77
659.171	3367.77
659.426	3288.77
659.68	3322.77
659.934	3440.77
660.189	3417.77
660.443	3303.77
660.697	3448.77
660.952	3491.77
661.206	3370.77
661.46	3184.77
661.715	3246.77
661.969	3393.77
662.223	3349.77
662.478	3262.77
662.732	3347.77
662.986	3379.77
663.241	3382.77
663.495	3284.77
663.749	3308.77
664.003	3452.77
664.258	3359.77
664.512	3283.77
664.766	3319.77
665.02	3385.77
665.275	3439.77
665.529	3306.77
665.783	3340.77
666.037	3402.77
666.291	3363.77
666.546	3260.77
666.8	3306.77
667.054	3301.77
667.308	3368.77
667.562	3204.77
667.816	3291.77
668.071	3400.77
668.325	3327.77
668.579	3331.77
668.833	3351.77
669.087	3487.77
669.341	3397.77
669.595	3261.77
669.849	3333.77
670.103	3383.77
670.357	3422.77
670.612	3401.77
670.866	3336.77
671.12	3417.77
671.374	3414.77
671.628	3370.77
671.882	3363.77
672.136	3423.77
672.39	3444.77
672.644	3283.77
672.898	3411.77
673.152	3569.77
673.406	3506.77
673.66	3418.77
673.914	3467.77
674.168	3532.77
674.422	3470.77
674.675	3374.77
674.929	3438.77
675.183	3539.77
675.437	3497.77
675.691	3410.77
675.945	3493.77
676.199	3661.77
676.453	3485.77
676.707	3315.77
676.961	3377.77
677.214	3527.77
677.468	3551.77
677.722	3531.77
677.976	3484.77
678.23	3576.77
678.484	3601.77
678.737	3445.77
678.991	3476.77
679.245	3535.77
679.499	3511.77
679.753	3444.77
680.006	3543.77
680.26	3684.77
680.514	3662.77
680.768	3516.77
681.021	3560.77
681.275	3613.77
681.529	3597.77
681.783	3509.77
682.036	3549.77
682.29	3584.77
682.544	3591.77
682.797	3545.77
683.051	3506.77
683.305	3577.77
683.559	3620.77
683.812	3645.77
684.066	3636.77
684.32	3718.77
684.573	3689.77
684.827	3664.77
685.08	3666.77
685.334	3776.77
685.588	3705.77
685.841	3581.77
686.095	3708.77
686.348	3719.77
686.602	3709.77
686.856	3675.77
687.109	3619.77
687.363	3694.77
687.616	3643.77
687.87	3477.77
688.123	3568.77
688.377	3706.77
688.63	3785.77
688.884	3753.77
689.137	3857.77
689.391	3885.77
689.644	3723.77
689.898	3652.77
690.151	3659.77
690.405	3766.77
690.658	3724.77
690.912	3703.77
691.165	3662.77
691.419	3707.77
691.672	3782.77
691.926	3709.77
692.179	3704.77
692.432	3757.77
692.686	3748.77
692.939	3619.77
693.193	3693.77
693.446	3854.77
693.699	3822.77
693.953	3789.77
694.206	3755.77
694.459	3847.77
694.713	3849.77
694.966	3674.77
695.219	3670.77
695.473	3755.77
695.726	3661.77
695.979	3637.77
696.233	3752.77
696.486	3837.77
696.739	3779.77
696.992	3659.77
697.246	3782.77
697.499	3849.77
697.752	3660.77
698.006	3633.77
698.259	3751.77
698.512	3764.77
698.765	3721.77
699.018	3690.77
699.272	3743.77
699.525	3726.77
699.778	3693.77
700.031	3680.77
700.284	3669.77
700.538	3738.77
700.791	3728.77
701.044	3698.77
701.297	3720.77
701.55	3760.77
701.803	3697.77
702.056	3561.77
702.31	3702.77
702.563	3774.77
702.816	3653.77
703.069	3513.77
703.322	3625.77
703.575	3736.77
703.828	3785.77
704.081	3707.77
704.334	3668.77
704.587	3719.77
704.84	3637.77
705.093	3608.77
705.346	3758.77
705.599	3758.77
705.853	3735.77
706.106	3760.77
706.359	4032.77
706.612	3755.77
706.865	3756.77
707.118	3589.77
707.37	3676.77
707.623	3770.77
707.876	3702.77
708.129	3679.77
708.382	3751.77
708.635	3826.77
708.888	3650.77
709.141	3547.77
709.394	3689.77
709.647	3771.77
709.9	3613.77
710.153	3516.77
710.406	3600.77
710.658	3674.77
710.911	3629.77
711.164	3494.77
711.417	3513.77
711.67	3599.77
711.923	3603.77
712.176	3464.77
712.428	3488.77
712.681	3591.77
712.934	3571.77
713.187	3508.77
713.44	3478.77
713.692	3551.77
713.945	3491.77
714.198	3433.77
714.451	3364.77
714.704	3536.77
714.956	3591.77
715.209	3577.77
715.462	3523.77
715.715	3502.77
715.967	3474.77
716.22	3361.77
716.473	3355.77
716.725	3474.77
716.978	3438.77
717.231	3410.77
717.484	3458.77
717.736	3373.77
717.989	3328.77
718.242	3254.77
718.494	3366.77
718.747	3484.77
718.999	3410.77
719.252	3415.77
719.505	3377.77
719.757	3366.77
720.01	3335.77
720.263	3285.77
720.515	3307.77
720.768	3420.77
721.02	3360.77
721.273	3201.77
721.525	3187.77
721.778	3288.77
722.031	3345.77
722.283	3187.77
722.536	3186.77
722.788	3283.77
723.041	3204.77
723.293	3129.77
723.546	3111.77
723.798	3173.77
724.051	3238.77
724.303	3158.77
724.556	3191.77
724.808	3332.77
725.061	3269.77
725.313	3148.77
725.566	3124.77
725.818	3161.77
726.071	3131.77
726.323	2992.77
726.575	3061.77
726.828	3190.77
727.08	3175.77
727.333	3030.77
727.585	3017.77
727.837	3082.77
728.09	3086.77
728.342	2904.77
728.595	3028.77
728.847	3165.77
729.099	2967.77
729.352	2972.77
729.604	2937.77
729.856	3057.77
730.109	3039.77
730.361	2960.77
730.613	3069.77
730.866	3136.77
731.118	2984.77
731.37	2876.77
731.622	2878.77
731.875	2951.77
732.127	3015.77
732.379	2982.77
732.631	3045.77
732.884	3013.77
733.136	2901.77
733.388	2786.77
733.64	2821.77
733.893	2965.77
734.145	2876.77
734.397	2719.77
734.649	2708.77
734.901	2863.77
735.154	2780.77
735.406	2700.77
735.658	2779.77
735.91	2934.77
736.162	2855.77
736.414	2676.77
736.667	2791.77
736.919	2826.77
737.171	2707.77
737.423	2668.77
737.675	2723.77
737.927	2790.77
738.179	2732.77
738.431	2693.77
738.684	2649.77
738.936	2707.77
739.188	2774.77
739.44	2552.77
739.692	2587.77
739.944	2600.77
740.196	2593.77
740.448	2576.77
740.7	2632.77
740.952	2671.77
741.204	2675.77
741.456	2547.77
741.708	2598.77
741.96	2575.77
742.212	2644.77
742.464	2627.77
742.716	2507.77
742.968	2576.77
743.22	2532.77
743.472	2435.77
743.724	2522.77
743.976	2660.77
744.228	2638.77
744.48	2429.77
744.732	2453.77
744.983	2576.77
745.235	2536.77
745.487	2505.77
745.739	2553.77
745.991	2516.77
746.243	2579.77
746.495	2419.77
746.747	2438.77
746.999	2528.77
747.25	2514.77
747.502	2447.77
747.754	2544.77
748.006	2484.77
748.258	2570.77
748.51	2609.77
748.761	2441.77
749.013	2517.77
749.265	2564.77
749.517	2540.77
749.768	2596.77
750.02	2605.77
750.272	2557.77
750.524	2388.77
750.776	2371.77
751.027	2549.77
751.279	2534.77
751.531	2290.77
751.782	2396.77
752.034	2510.77
752.286	2411.77
752.538	2240.77
752.789	2355.77
753.041	2454.77
753.293	2389.77
753.544	2300.77
753.796	2313.77
754.048	2428.77
754.299	2410.77
754.551	2348.77
754.803	2271.77
755.054	2305.77
755.306	2376.77
755.558	2268.77
755.809	2295.77
756.061	2423.77
756.312	2304.77
756.564	2286.77
756.816	2314.77
757.067	2292.77
757.319	2297.77
757.57	2254.77
757.822	2300.77
758.073	2377.77
758.325	2323.77
758.577	2216.77
758.828	2214.77
759.08	2389.77
759.331	2383.77
759.583	2160.77
759.834	2240.77
760.086	2221.77
760.337	2212.77
760.589	2176.77
760.84	2160.77
761.092	2255.77
761.343	2205.77
761.595	2059.77
761.846	2195.77
762.097	2224.77
762.349	2171.77
762.6	2017.77
762.852	2137.77
763.103	2248.77
763.355	2130.77
763.606	2039.77
763.857	2194.77
764.109	2299.77
764.36	2171.77
764.612	2086.77
764.863	2175.77
765.114	2199.77
765.366	2064.77
765.617	1934.77
765.868	2003.77
766.12	2177.77
766.371	2155.77
766.622	1940.77
766.874	2056.77
767.125	2213.77
767.376	2067.77
767.628	1987.77
767.879	2030.77
768.13	2134.77
768.381	2131.77
768.633	2056.77
768.884	2041.77
769.135	2133.77
769.386	2076.77
769.638	2008.77
769.889	2001.77
770.14	2023.77
770.391	1933.77
770.643	1917.77
770.894	1923.77
771.145	2022.77
771.396	1945.77
771.647	1802.77
771.899	1962.77
772.15	2053.77
772.401	2000.77
772.652	1857.77
772.903	1876.77
773.154	2220.77
773.406	2435.77
773.657	1902.77
773.908	1885.77
774.159	1970.77
774.41	1988.77
774.661	1862.77
774.912	1903.77
775.163	2048.77
775.414	2034.77
775.666	1802.77
775.917	1809.77
776.168	1851.77
776.419	1871.77
776.67	1765.77
776.921	1782.77
777.172	1857.77
777.423	1869.77
777.674	1878.77
777.925	1866.77
778.176	1829.77
778.427	1807.77
778.678	1749.77
778.929	1770.77
779.18	1845.77
779.431	1774.77
779.682	1773.77
779.933	1792.77
780.184	1835.77
780.435	1811.77
780.686	1761.77
780.937	1811.77
781.188	1856.77
781.439	1933.77
781.69	1856.77
781.941	1807.77
782.191	1772.77
782.442	1739.77
782.693	1685.77
782.944	1672.77
783.195	1755.77
783.446	1809.77
783.697	1812.77
783.948	1697.77
784.199	1709.77
784.449	1665.77
784.7	1687.77
784.951	1709.77
785.202	1831.77
785.453	1816.77
785.704	1608.77
785.954	1577.77
786.205	1681.77
786.456	1620.77
786.707	1526.77
786.958	1569.77
787.208	1644.77
787.459	1608.77
787.71	1615.77
787.961	1604.77
788.211	1679.77
788.462	1660.77
788.713	1603.77
788.964	1601.77
789.214	1695.77
789.465	1700.77
789.716	1626.77
789.967	1601.77
790.217	1599.77
790.468	1567.77
790.719	1506.77
790.969	1547.77
791.22	1615.77
791.471	1684.77
791.721	1687.77
791.972	1579.77
792.223	1662.77
792.473	1592.77
792.724	1579.77
792.975	1549.77
793.225	1618.77
793.476	1566.77
793.726	1501.77
793.977	1593.77
794.228	1721.77
794.478	1609.77
794.729	1477.77
794.979	1561.77
795.23	1619.77
795.481	1552.77
795.731	1467.77
795.982	1504.77
796.232	1508.77
796.483	1495.77
796.733	1441.77
796.984	1496.77
797.234	1559.77
797.485	1545.77
797.735	1368.77
797.986	1413.77
798.236	1559.77
798.487	1494.77
798.737	1503.77
798.988	1578.77
799.238	1605.77
799.489	1505.77
799.739	1392.77
799.99	1458.77
800.24	1542.77
800.491	1592.77
800.741	1445.77
800.991	1379.77
801.242	1445.77
801.492	1477.77
801.743	1399.77
801.993	1518.77
802.244	1619.77
802.494	1440.77
802.744	1418.77
802.995	1443.77
803.245	1464.77
803.495	1438.77
803.746	1374.77
803.996	1463.77
804.246	1471.77
804.497	1468.77
804.747	1342.77
804.997	1406.77
805.248	1406.77
805.498	1361.77
805.748	1378.77
805.999	1265.77
806.249	1331.77
806.499	1346.77
806.75	1265.77
807	1283.77
807.25	1379.77
807.5	1308.77
807.751	1304.77
808.001	1372.77
808.251	1390.77
808.501	1474.77
808.752	1483.77
809.002	1391.77
809.252	1370.77
809.502	1308.77
809.752	1286.77
810.003	1225.77
810.253	1290.77
810.503	1323.77
810.753	1368.77
811.003	1412.77
811.254	1422.77
811.504	1323.77
811.754	1270.77
812.004	1306.77
812.254	1556.77
812.504	1370.77
812.754	1251.77
813.005	1347.77
813.255	1405.77
813.505	1349.77
813.755	1222.77
814.005	1286.77
814.255	1316.77
814.505	1287.77
814.755	1181.77
815.005	1211.77
815.255	1350.77
815.505	1278.77
815.756	1318.77
816.006	1277.77
816.256	1205.77
816.506	1177.77
816.756	1143.77
817.006	1169.77
817.256	1267.77
817.506	1276.77
817.756	1206.77
818.006	1216.77
818.256	1275.77
818.506	1248.77
818.756	1101.77
819.006	1156.77
819.256	1264.77
819.506	1222.77
819.756	1133.77
820.006	1215.77
820.255	1278.77
820.505	1245.77
820.755	1116.77
821.005	1149.77
821.255	1244.77
821.505	1193.77
821.755	1150.77
822.005	1257.77
822.255	1317.77
822.505	1215.77
822.755	1209.77
823.004	1091.77
823.254	1132.77
823.504	1190.77
823.754	1185.77
824.004	1107.77
824.254	1199.77
824.504	1214.77
824.753	1240.77
825.003	1212.77
825.253	1276.77
825.503	1164.77
825.753	1110.77
826.002	1167.77
826.252	1367.77
826.502	1171.77
826.752	1092.77
827.002	1115.77
827.251	1215.77
827.501	1112.77
827.751	1032.77
828.001	1099.77
828.25	1193.77
828.5	1027.77
828.75	1025.77
829	1118.77
829.249	1245.77
829.499	1069.77
829.749	1061.77
829.998	1132.77
830.248	1165.77
830.498	1056.77
830.748	1050.77
830.997	1115.77
831.247	1177.77
831.497	1181.77
831.746	1088.77
831.996	1175.77
832.246	1280.77
832.495	1276.77
832.745	1001.77
832.994	1028.77
833.244	1170.77
833.494	1078.77
833.743	985.77
833.993	1046.77
834.243	1128.77
834.492	1109.77
834.742	1069.77
834.991	1048.77
835.241	1217.77
835.49	1059.77
835.74	943.77
835.99	1014.77
836.239	1120.77
836.489	1153.77
836.738	1033.77
836.988	940.77
837.237	1070.77
837.487	1176.77
837.736	1029.77
837.986	987.77
838.235	1072.77
838.485	1037.77
838.734	991.77
838.984	1059.77
839.233	1033.77
839.483	956.77
839.732	939.77
839.982	1012.77
840.231	1048.77
840.481	1027.77
840.73	911.77
840.979	979.77
841.229	1000.77
841.478	998.77
841.728	883.77
841.977	871.77
842.227	939.77
842.476	897.77
842.725	846.77
842.975	919.77
843.224	1038.77
843.474	1082.77
843.723	955.77
843.972	937.77
844.222	989.77
844.471	1047.77
844.72	921.77
844.97	919.77
845.219	1025.77
845.468	1001.77
845.718	943.77
845.967	960.77
846.216	1030.77
846.466	1086.77
846.715	927.77
846.964	929.77
847.214	929.77
847.463	886.77
847.712	905.77
847.961	864.77
848.211	943.77
848.46	930.77
848.709	869.77
848.958	847.77
849.208	914.77
849.457	914.77
849.706	904.77
849.955	853.77
850.205	855.77
850.454	992.77
850.703	1015.77
850.952	924.77
851.201	964.77
851.451	915.77
851.7	924.77
851.949	820.77
852.198	908.77
852.447	881.77
852.696	797.77
852.946	829.77
853.195	935.77
853.444	941.77
853.693	775.77
853.942	776.77
854.191	864.77
854.44	874.77
854.689	827.77
854.939	801.77
855.188	783.77
855.437	792.77
855.686	779.77
855.935	813.77
856.184	876.77
856.433	925.77
856.682	842.77
856.931	837.77
857.18	868.77
857.429	793.77
857.678	729.77
857.927	800.77
858.176	830.77
858.425	746.77
858.674	685.77
858.924	765.77
859.173	790.77
859.422	807.77
859.671	669.77
859.92	744.77
860.169	799.77
860.417	835.77
860.666	778.77
860.915	708.77
861.164	750.77
861.413	719.77
861.662	652.77
861.911	705.77
862.16	820.77
862.409	788.77
862.658	648.77
862.907	679.77
863.156	791.77
863.405	775.77
863.654	673.77
863.903	628.77
864.151	740.77
864.4	767.77
864.649	705.77
864.898	739.77
865.147	778.77
865.396	811.77
865.645	672.77
865.894	733.77
866.142	840.77
866.391	731.77
866.64	630.77
866.889	717.77
867.138	856.77
867.387	748.77
867.635	645.77
867.884	696.77
868.133	793.77
868.382	726.77
868.631	587.77
868.879	609.77
869.128	708.77
869.377	710.77
869.626	654.77
869.874	636.77
870.123	750.77
870.372	721.77
870.621	575.77
870.869	619.77
871.118	732.77
871.367	723.77
871.616	596.77
871.864	707.77
872.113	742.77
872.362	702.77
872.61	633.77
872.859	689.77
873.108	731.77
873.357	611.77
873.605	549.77
873.854	573.77
874.103	619.77
874.351	606.77
874.6	599.77
874.848	643.77
875.097	685.77
875.346	688.77
875.594	552.77
875.843	679.77
876.092	823.77
876.34	688.77
876.589	563.77
876.837	462.77
877.086	569.77
877.335	649.77
877.583	578.77
877.832	625.77
878.08	766.77
878.329	656.77
878.578	559.77
878.826	600.77
879.075	670.77
879.323	681.77
879.572	581.77
879.82	696.77
880.069	668.77
880.317	662.77
880.566	536.77
880.814	636.77
881.063	739.77
881.311	633.77
881.56	662.77
881.808	580.77
882.057	647.77
882.305	613.77
882.554	619.77
882.802	526.77
883.051	572.77
883.299	576.77
883.548	534.77
883.796	642.77
884.045	643.77
884.293	556.77
884.541	445.77
884.79	438.77
885.038	550.77
885.287	551.77
885.535	554.77
885.783	573.77
886.032	500.77
886.28	472.77
886.529	443.77
886.777	516.77
887.025	669.77
887.274	549.77
887.522	476.77
887.77	495.77
888.019	525.77
888.267	469.77
888.516	401.77
888.764	441.77
889.012	541.77
889.261	539.77
889.509	451.77
889.757	464.77
890.005	489.77
890.254	441.77
890.502	480.77
890.75	671.77
890.999	658.77
891.247	583.77
891.495	531.77
891.743	508.77
891.992	632.77
892.24	524.77
892.488	427.77
892.737	438.77
892.985	534.77
893.233	521.77
893.481	452.77
893.729	434.77
893.978	598.77
894.226	611.77
894.474	467.77
894.722	468.77
894.97	482.77
895.219	470.77
895.467	488.77
895.715	514.77
895.963	480.77
896.211	432.77
896.46	347.77
896.708	464.77
896.956	550.77
897.204	634.77
897.452	531.77
897.7	448.77
897.948	499.77
898.197	456.77
898.445	399.77
898.693	432.77
898.941	505.77
899.189	468.77
899.437	424.77
899.685	532.77
899.933	489.77
900.181	484.77
900.43	386.77
900.678	411.77
900.926	462.77
901.174	435.77
901.422	414.77
901.67	439.77
901.918	491.77
902.166	451.77
902.414	330.77
902.662	357.77
902.91	467.77
903.158	449.77
903.406	391.77
903.654	393.77
903.902	423.77
904.15	400.77
904.398	283.77
904.646	371.77
904.894	464.77
905.142	464.77
905.39	404.77
905.638	358.77
905.886	395.77
906.134	381.77
906.382	395.77
906.63	369.77
906.878	442.77
907.126	405.77
907.374	339.77
907.622	361.77
907.869	475.77
908.117	455.77
908.365	379.77
908.613	328.77
908.861	356.77
909.109	326.77
909.357	267.77
909.605	337.77
909.853	434.77
910.1	369.77
910.348	197.77
910.596	253.77
910.844	442.77
911.092	478.77
911.34	363.77
911.588	371.77
911.835	419.77
912.083	399.77
912.331	375.77
912.579	401.77
912.827	576.77
913.075	431.77
913.322	289.77
913.57	307.77
913.818	439.77
914.066	389.77
914.313	300.77
914.561	387.77
914.809	406.77
915.057	338.77
915.305	311.77
915.552	320.77
915.8	429.77
916.048	326.77
916.296	238.77
916.543	359.77
916.791	433.77
917.039	354.77
917.286	255.77
917.534	285.77
917.782	419.77
918.03	320.77
918.277	205.77
918.525	217.77
918.773	324.77
919.02	317.77
919.268	247.77
919.516	282.77
919.763	283.77
920.011	301.77
920.259	221.77
920.506	304.77
920.754	404.77
921.002	384.77
921.249	341.77
921.497	298.77
921.745	329.77
921.992	350.77
922.24	196.77
922.487	314.77
922.735	485.77
922.983	387.77
923.23	301.77
923.478	256.77
923.725	353.77
923.973	340.77
924.221	292.77
924.468	350.77
924.716	344.77
924.963	295.77
925.211	241.77
925.458	302.77
925.706	425.77
925.953	459.77
926.201	276.77
926.448	260.77
926.696	367.77
926.944	312.77
927.191	216.77
927.439	241.77
927.686	283.77
927.934	318.77
928.181	212.77
928.429	196.77
928.676	261.77
928.923	207.77
929.171	163.77
929.418	290.77
929.666	348.77
929.913	339.77
930.161	143.77
930.408	191.77
930.656	268.77
930.903	307.77
931.151	160.77
931.398	228.77
931.645	363.77
931.893	245.77
932.14	205.77
932.388	229.77
932.635	375.77
932.882	422.77
933.13	299.77
933.377	209.77
933.625	305.77
933.872	227.77
934.119	164.77
934.367	209.77
934.614	215.77
934.861	195.77
935.109	211.77
935.356	237.77
935.603	299.77
935.851	212.77
936.098	152.77
936.345	280.77
936.593	303.77
936.84	245.77
937.087	122.77
937.335	191.77
937.582	255.77
937.829	253.77
938.077	213.77
938.324	211.77
938.571	287.77
938.818	201.77
939.066	160.77
939.313	135.77
939.56	251.77
939.807	268.77
940.055	133.77
940.302	185.77
940.549	330.77
940.796	270.77
941.044	199.77
941.291	198.77
941.538	365.77
941.785	250.77
942.033	180.77
942.28	260.77
942.527	297.77
942.774	259.77
943.021	110.77
943.269	137.77
943.516	232.77
943.763	247.77
944.01	189.77
944.257	267.77
944.504	334.77
944.752	286.77
944.999	238.77
945.246	154.77
945.493	230.77
945.74	223.77
945.987	129.77
946.234	195.77
946.482	291.77
946.729	180.77
946.976	110.77
947.223	142.77
947.47	315.77
947.717	273.77
947.964	273.77
948.211	232.77
948.458	295.77
948.705	214.77
948.952	108.77
949.2	199.77
949.447	320.77
949.694	306.77
949.941	148.77
950.188	148.77
950.435	165.77
950.682	188.77
950.929	81.77
951.176	124.77
951.423	297.77
951.67	256.77
951.917	217.77
952.164	196.77
952.411	277.77
952.658	320.77
952.905	164.77
953.152	95.77
953.399	232.77
953.646	206.77
953.893	85.77
954.14	150.77
954.387	202.77
954.634	168.77
954.881	113.77
955.128	196.77
955.375	171.77
955.622	169.77
955.869	170.77
956.115	144.77
956.362	230.77
956.609	191.77
956.856	116.77
957.103	126.77
957.35	245.77
957.597	244.77
957.844	176.77
958.091	174.77
958.338	247.77
958.585	172.77
958.831	4.77
959.078	78.77
959.325	234.77
959.572	143.77
959.819	62.77
960.066	28.77
960.313	168.77
960.559	145.77
960.806	4.77
961.053	60.77
961.3	209.77
961.547	241.77
961.794	38.77
962.04	194.77
962.287	239.77
962.534	84.77
962.781	69.77
963.028	152.77
963.274	264.77
963.521	152.77
963.768	69.77
964.015	115.77
964.262	280.77
964.508	129.77
964.755	30.77
965.002	64.77
965.249	111.77
965.495	60.77
965.742	32.77
965.989	43.77
966.236	171.77
966.482	103.77
966.729	42.77
966.976	9.77
967.222	113.77
967.469	117.77
967.716	33.77
967.963	41.77
968.209	132.77
968.456	77.77
968.703	-13.23
968.949	100.77
969.196	261.77
969.443	253.77
969.689	29.77
969.936	11.77
970.183	122.77
970.429	51.77
970.676	4.77
970.923	64.77
971.169	140.77
971.416	81.77
971.663	34.77
971.909	85.77
972.156	159.77
972.402	143.77
972.649	76.77
972.896	107.77
973.142	130.77
973.389	142.77
973.635	37.77
973.882	149.77
974.129	216.77
974.375	109.77
974.622	1.77
974.868	22.77
975.115	87.77
975.361	34.77
975.608	15.77
975.855	148.77
976.101	173.77
976.348	104.77
976.594	26.77
976.841	86.77
977.087	95.77
977.334	129.77
977.58	-10.23
977.827	-15.23
978.073	134.77
978.32	110.77
978.566	-8.23
978.813	69.77
979.059	107.77
979.306	76.77
979.552	-9.23
979.799	57.77
980.045	61.77
980.292	60.77
980.538	-13.23
980.785	-9.23
981.031	41.77
981.278	8.77
981.524	-50.23
981.771	93.77
982.017	244.77
982.263	139.77
982.51	-19.23
982.756	61.77
983.003	142.77
983.249	73.77
983.495	-10.23
983.742	-3.23
983.988	45.77
984.235	50.77
984.481	-42.23
984.727	-15.23
984.974	111.77
985.22	89.77
985.467	41.77
985.713	40.77
985.959	147.77
986.206	123.77
986.452	34.77
986.698	90.77
986.945	88.77
987.191	131.77
987.437	117.77
987.684	61.77
987.93	210.77
988.176	137.77
988.423	-47.23
988.669	30.77
988.915	186.77
989.162	49.77
989.408	-54.23
989.654	33.77
989.901	59.77
990.147	46.77
990.393	42.77
990.639	100.77
990.886	126.77
991.132	171.77
991.378	121.77
991.625	243.77
991.871	220.77
992.117	127.77
992.363	62.77
992.61	67.77
992.856	188.77
993.102	54.77
993.348	-22.23
993.594	1.77
993.841	52.77
994.087	187.77
994.333	45.77
994.579	44.77
994.826	91.77
995.072	102.77
995.318	-104.23
995.564	-39.23
995.81	86.77
996.057	34.77
996.303	-63.23
996.549	-43.23
996.795	46.77
997.041	37.77
997.287	8.77
997.534	7.77
997.78	48.77
998.026	68.77
998.272	-47.23
998.518	-54.23
998.764	105.77
999.01	121.77
999.256	26.77
999.503	-25.23
999.749	-8.23
999.995	-43.23
1000.241	-59.23
1000.487	11.77
1000.733	54.77
1000.979	33.77
1001.225	-2.23
1001.471	59.77
1001.718	100.77
1001.964	133.77
1002.21	-33.23
1002.456	-11.23
1002.702	142.77
1002.948	56.77
1003.194	-28.23
1003.44	-47.23
1003.686	40.77
1003.932	-1.23
1004.178	-47.23
1004.424	10.77
1004.67	153.77
1004.916	150.77
1005.162	36.77
1005.408	-18.23
1005.654	120.77
1005.9	-44.23
1006.146	-92.23
1006.392	-28.23
1006.638	55.77
1006.884	26.77
1007.13	-55.23
1007.376	-67.23
1007.622	108.77
1007.868	133.77
1008.114	-10.23
1008.36	54.77
1008.606	84.77
1008.852	97.77
1009.098	37.77
1009.344	85.77
1009.59	68.77
1009.836	-71.23
1010.082	-139.23
1010.328	-38.23
1010.574	62.77
1010.82	-38.23
1011.065	-123.23
1011.311	-103.23
1011.557	11.77
1011.803	-17.23
1012.049	-78.23
1012.295	-31.23
1012.541	21.77
1012.787	6.77
1013.033	-119.23
1013.278	-131.23
1013.524	22.77
1013.77	110.77
1014.016	-0.23
1014.262	-13.23
1014.508	90.77
1014.754	-72.23
1015	-75.23
1015.245	95.77
1015.491	106.77
1015.737	70.77
1015.983	-65.23
1016.229	-99.23
1016.475	-5.23
1016.72	125.77
1016.966	159.77
1017.212	50.77
1017.458	100.77
1017.704	29.77
1017.949	-107.23
1018.195	67.77
1018.441	185.77
1018.687	129.77
1018.933	-34.23
1019.178	-46.23
1019.424	106.77
1019.67	119.77
1019.916	-73.23
1020.161	-28.23
1020.407	41.77
1020.653	-20.23
1020.899	-86.23
1021.144	-21.23
1021.39	75.77
1021.636	-36.23
1021.882	-123.23
1022.127	-12.23
1022.373	137.77
1022.619	85.77
1022.865	-26.23
1023.11	-25.23
1023.356	97.77
1023.602	25.77
1023.847	-42.23
1024.093	13.77
1024.339	-0.23
1024.584	-34.23
1024.83	-54.23
1025.076	-53.23
1025.321	65.77
1025.567	31.77
1025.813	-70.23
1026.058	22.77
1026.304	70.77
1026.55	-23.23
1026.795	-30.23
1027.041	-20.23
1027.287	41.77
1027.532	56.77
1027.778	9.77
1028.024	-27.23
1028.269	23.77
1028.515	-57.23
1028.76	-107.23
1029.006	-31.23
1029.252	80.77
1029.497	-6.23
1029.743	-26.23
1029.989	-64.23
1030.234	55.77
1030.48	126.77
1030.725	-71.23
1030.971	-34.23
1031.216	96.77
1031.462	4.77
1031.708	-124.23
1031.953	-78.23
1032.199	13.77
1032.444	35.77
1032.69	-20.23
1032.935	-47.23
1033.181	74.77
1033.426	-30.23
1033.672	-179.23
1033.918	-126.23
1034.163	-4.23
1034.409	-24.23
1034.654	-82.23
1034.9	5.77
1035.145	64.77
1035.391	-22.23
1035.636	-133.23
1035.882	-31.23
1036.127	-30.23
1036.373	-71.23
1036.618	-164.23
1036.864	-60.23
1037.109	86.77
1037.355	-25.23
1037.6	-95.23
1037.845	-56.23
1038.091	131.77
1038.336	95.77
1038.582	117.77
1038.827	202.77
1039.073	38.77
1039.318	-42.23
1039.564	-139.23
1039.809	-77.23
1040.055	98.77
1040.3	96.77
1040.545	-63.23
1040.791	-75.23
1041.036	-15.23
1041.282	25.77
1041.527	79.77
1041.772	-99.23
1042.018	-40.23
1042.263	-8.23
1042.509	-159.23
1042.754	-114.23
1042.999	10.77
1043.245	4.77
1043.49	-176.23
1043.736	-100.23
1043.981	-14.23
1044.226	-2.23
1044.472	-32.23
1044.717	-17.23
1044.962	91.77
1045.208	5.77
1045.453	-226.23
1045.698	-150.23
1045.944	58.77
1046.189	24.77
1046.434	-91.23
1046.68	-63.23
1046.925	118.77
1047.17	-42.23
1047.416	-203.23
1047.661	-106.23
1047.906	34.77
1048.152	12.77
1048.397	-56.23
1048.642	-75.23
1048.887	94.77
1049.133	100.77
1049.378	-47.23
1049.623	-82.23
1049.869	30.77
1050.114	-34.23
1050.359	-115.23
1050.604	-35.23
1050.85	116.77
1051.095	-32.23
1051.34	-130.23
1051.585	-61.23
1051.831	134.77
1052.076	-2.23
1052.321	-226.23
1052.566	-104.23
1052.812	86.77
1053.057	-8.23
1053.302	-75.23
1053.547	-2.23
1053.792	56.77
1054.038	46.77
1054.283	-134.23
1054.528	-66.23
1054.773	-4.23
1055.018	7.77
1055.264	-95.23
1055.509	-139.23
1055.754	-13.23
1055.999	-65.23
1056.244	-147.23
1056.49	-71.23
1056.735	5.77
1056.98	-51.23
1057.225	-140.23
1057.47	42.77
1057.715	-43.23
1057.96	-109.23
1058.206	-148.23
1058.451	-46.23
1058.696	82.77
1058.941	19.77
1059.186	-153.23
1059.431	-123.23
1059.676	72.77
1059.922	19.77
1060.167	120.77
1060.412	296.77
1060.657	63.77
1060.902	-1.23
1061.147	-190.23
1061.392	-108.23
1061.637	38.77
1061.882	-37.23
1062.127	-186.23
1062.373	-164.23
1062.618	99.77
1062.863	120.77
1063.108	-72.23
1063.353	-141.23
1063.598	-30.23
1063.843	-71.23
1064.088	-154.23
1064.333	-140.23
1064.578	24.77
1064.823	52.77
1065.068	-196.23
1065.313	-111.23
1065.558	49.77
1065.803	41.77
1066.048	-163.23
1066.293	-146.23
1066.538	69.77
1066.783	-6.23
1067.028	-184.23
1067.273	-156.23
1067.518	9.77
1067.763	-46.23
1068.008	-211.23
1068.253	-147.23
1068.498	36.77
1068.743	-15.23
1068.988	-175.23
1069.233	-147.23
1069.478	61.77
1069.723	123.77
1069.968	-92.23
1070.213	-56.23
1070.458	46.77
1070.703	-44.23
1070.948	-200.23
1071.193	-83.23
1071.438	47.77
1071.683	81.77
1071.928	-44.23
1072.173	-59.23
1072.418	6.77
1072.663	-20.23
1072.908	-165.23
1073.152	-115.23
1073.397	73.77
1073.642	-47.23
1073.887	-83.23
1074.132	26.77
1074.377	-2.23
1074.622	-27.23
1074.867	-131.23
1075.112	-77.23
1075.357	99.77
1075.601	-50.23
1075.846	-92.23
1076.091	17.77
1076.336	67.77
1076.581	-69.23
1076.826	-190.23
1077.071	-89.23
1077.315	174.77
1077.56	87.77
1077.805	-130.23
1078.05	-92.23
1078.295	-31.23
1078.54	-50.23
1078.785	-180.23
1079.029	-128.23
1079.274	53.77
1079.519	-80.23
1079.764	-161.23
1080.009	-66.23
1080.253	13.77
1080.498	-68.23
1080.743	-223.23
1080.988	-60.23
1081.233	153.77
1081.478	66.77
1081.722	-133.23
1081.967	-29.23
1082.212	130.77
1082.457	13.77
1082.701	-120.23
1082.946	-80.23
1083.191	49.77
1083.436	-62.23
1083.681	-214.23
1083.925	-104.23
1084.17	-3.23
1084.415	28.77
1084.66	-176.23
1084.904	-89.23
1085.149	-2.23
1085.394	-40.23
1085.639	-201.23
1085.883	-99.23
1086.128	139.77
1086.373	139.77
1086.617	-77.23
1086.862	-144.23
1087.107	-28.23
1087.352	-73.23
1087.596	-155.23
1087.841	-16.23
1088.086	31.77
1088.33	6.77
1088.575	-236.23
1088.82	-116.23
1089.064	63.77
1089.309	-75.23
1089.554	-208.23
1089.798	-162.23
1090.043	28.77
1090.288	-15.23
1090.533	-204.23
1090.777	-129.23
1091.022	31.77
1091.266	61.77
1091.511	-121.23
1091.756	-34.23
1092	118.77
1092.245	87.77
1092.49	-164.23
1092.734	-104.23
1092.979	84.77
1093.224	-24.23
1093.468	-179.23
1093.713	-133.23
1093.957	1.77
1094.202	-55.23
1094.447	-216.23
1094.691	-99.23
1094.936	41.77
1095.181	-3.23
1095.425	-184.23
1095.67	-159.23
1095.914	22.77
1096.159	-1.23
1096.403	-149.23
1096.648	-66.23
1096.893	49.77
1097.137	-81.23
1097.382	-225.23
1097.626	-159.23
1097.871	8.77
1098.115	-27.23
1098.36	-204.23
1098.605	-109.23
1098.849	-38.23
1099.094	-118.23
1099.338	-180.23
1099.583	-103.23
1099.827	123.77
1100.072	29.77
1100.316	-170.23
1100.561	-124.23
1100.805	51.77
1101.05	25.77
1101.294	-164.23
1101.539	-166.23
1101.783	-12.23
1102.028	-3.23
1102.273	-145.23
1102.517	-75.23
1102.761	53.77
1103.006	-61.23
1103.25	-282.23
1103.495	-165.23
1103.739	49.77
1103.984	99.77
1104.228	-79.23
1104.473	-11.23
1104.717	37.77
1104.962	5.77
1105.206	-114.23
1105.451	-150.23
1105.695	20.77
1105.94	-8.23
1106.184	-161.23
1106.429	-104.23
1106.673	7.77
1106.917	65.77
1107.162	-178.23
1107.406	-29.23
1107.651	124.77
1107.895	-82.23
1108.14	-183.23
1108.384	-96.23
1108.628	115.77
1108.873	106.77
1109.117	-143.23
1109.362	-119.23
1109.606	-34.23
1109.85	-37.23
1110.095	-169.23
1110.339	-83.23
1110.584	88.77
1110.828	25.77
1111.072	-82.23
1111.317	-125.23
1111.561	-30.23
1111.806	-32.23
1112.05	-178.23
1112.294	-90.23
1112.539	16.77
1112.783	-0.23
1113.027	-119.23
1113.272	-130.23
1113.516	-40.23
1113.76	-54.23
1114.005	-154.23
1114.249	-83.23
1114.493	68.77
1114.738	111.77
1114.982	-42.23
1115.226	-85.23
1115.471	-20.23
1115.715	-25.23
1115.959	-191.23
1116.204	-179.23
1116.448	-12.23
1116.692	-95.23
1116.937	-172.23
1117.181	-9.23
1117.425	-17.23
1117.67	-79.23
1117.914	-155.23
1118.158	-90.23
1118.402	141.77
1118.647	67.77
1118.891	-98.23
1119.135	-38.23
1119.38	109.77
1119.624	15.77
1119.868	-135.23
1120.112	-143.23
1120.357	-52.23
1120.601	-116.23
1120.845	-216.23
1121.089	-148.23
1121.334	26.77
