Data from HR4C21111__44__10-14-56-251.txt Node

Date: Mon Feb 22 10:14:56 IST 2021
User: Kapil
Spectrometer: HR4C2111
Trigger mode: 4
Integration Time (sec): 2.300000E0
Scans to average: 1
Electric dark correction enabled: true
Nonlinearity correction enabled: false
Boxcar width: 0
XAxis mode: Wavelengths
Number of Pixels in Spectrum: 3648
>>>>>Begin Spectral Data<<<<<
189.472	-439.15
189.745	-439.15
190.017	-439.15
190.289	-465.15
190.561	-301.15
190.834	-23.15
191.106	-123.15
191.378	1.85
191.65	0.85
191.923	-137.15
192.195	-95.15
192.467	138.85
192.739	106.85
193.011	-9.15
193.284	89.85
193.556	174.85
193.828	-11.15
194.1	-114.15
194.372	-126.15
194.644	55.85
194.916	72.85
195.188	-148.15
195.46	-82.15
195.732	37.85
196.004	-33.15
196.276	-118.15
196.548	-70.15
196.82	84.85
197.092	70.85
197.364	-135.15
197.636	-89.15
197.908	21.85
198.18	-44.15
198.452	-108.15
198.724	-58.15
198.996	51.85
199.268	82.85
199.54	-20.15
199.811	-113.15
200.083	97.85
200.355	7.85
200.627	-194.15
200.899	-62.15
201.171	46.85
201.442	-65.15
201.714	-189.15
201.986	-118.15
202.258	53.85
202.529	121.85
202.801	12.85
203.073	68.85
203.345	173.85
203.616	-5.15
203.888	-145.15
204.16	-152.15
204.431	82.85
204.703	-11.15
204.974	-159.15
205.246	-6.15
205.518	195.85
205.789	-4.15
206.061	-141.15
206.332	-104.15
206.604	31.85
206.876	101.85
207.147	135.85
207.419	19.85
207.69	133.85
207.962	-32.15
208.233	-180.15
208.505	3.85
208.776	158.85
209.047	82.85
209.319	-125.15
209.59	-89.15
209.862	143.85
210.133	16.85
210.404	-161.15
210.676	-114.15
210.947	74.85
211.219	57.85
211.49	-122.15
211.761	-52.15
212.033	25.85
212.304	-44.15
212.575	-189.15
212.846	-97.15
213.118	20.85
213.389	-64.15
213.66	-120.15
213.931	-68.15
214.203	13.85
214.474	-38.15
214.745	-123.15
215.016	131.85
215.287	426.85
215.559	63.85
215.83	-129.15
216.101	-78.15
216.372	8.85
216.643	72.85
216.914	17.85
217.185	-90.15
217.456	149.85
217.727	17.85
217.998	-169.15
218.269	-61.15
218.54	28.85
218.811	-31.15
219.082	-112.15
219.353	-84.15
219.624	-26.15
219.895	-30.15
220.166	-132.15
220.437	-115.15
220.708	92.85
220.979	-13.15
221.25	-153.15
221.521	-95.15
221.792	25.85
222.063	80.85
222.334	45.85
222.604	188.85
222.875	167.85
223.146	86.85
223.417	-178.15
223.688	-36.15
223.958	130.85
224.229	-42.15
224.5	-191.15
224.771	-66.15
225.041	88.85
225.312	47.85
225.583	-113.15
225.854	-61.15
226.124	82.85
226.395	-13.15
226.666	-124.15
226.936	-109.15
227.207	57.85
227.478	-38.15
227.748	-91.15
228.019	45.85
228.289	232.85
228.56	-31.15
228.831	-46.15
229.101	33.85
229.372	57.85
229.642	-25.15
229.913	-175.15
230.183	-145.15
230.454	-11.15
230.724	4.85
230.995	-97.15
231.265	-75.15
231.536	70.85
231.806	47.85
232.076	-108.15
232.347	-126.15
232.617	31.85
232.888	27.85
233.158	-61.15
233.428	-125.15
233.699	-21.15
233.969	-47.15
234.239	-170.15
234.51	-98.15
234.78	38.85
235.05	-20.15
235.321	-123.15
235.591	-82.15
235.861	59.85
236.131	-52.15
236.402	-193.15
236.672	-101.15
236.942	33.85
237.212	39.85
237.483	-77.15
237.753	-8.15
238.023	162.85
238.293	17.85
238.563	-74.15
238.833	-102.15
239.103	69.85
239.374	-15.15
239.644	-153.15
239.914	-41.15
240.184	119.85
240.454	-6.15
240.724	-172.15
240.994	-72.15
241.264	19.85
241.534	77.85
241.804	-3.15
242.074	-83.15
242.344	-36.15
242.614	-55.15
242.884	-177.15
243.154	-127.15
243.424	23.85
243.694	58.85
243.964	-96.15
244.234	-80.15
244.503	134.85
244.773	16.85
245.043	-222.15
245.313	-135.15
245.583	115.85
245.853	71.85
246.123	-162.15
246.392	-114.15
246.662	-1.15
246.932	-32.15
247.202	-187.15
247.471	-66.15
247.741	269.85
248.011	118.85
248.281	-141.15
248.55	-95.15
248.82	62.85
249.09	-10.15
249.359	-94.15
249.629	-93.15
249.899	40.85
250.168	81.85
250.438	-19.15
250.708	-120.15
250.977	72.85
251.247	66.85
251.516	-105.15
251.786	-54.15
252.055	124.85
252.325	16.85
252.595	-103.15
252.864	-62.15
253.134	40.85
253.403	-47.15
253.673	-175.15
253.942	-117.15
254.212	24.85
254.481	-3.15
254.75	-161.15
255.02	-102.15
255.289	67.85
255.559	-27.15
255.828	-139.15
256.097	-54.15
256.367	12.85
256.636	-73.15
256.906	-136.15
257.175	-7.15
257.444	256.85
257.714	54.85
257.983	-84.15
258.252	-54.15
258.521	-3.15
258.791	34.85
259.06	-110.15
259.329	-69.15
259.598	46.85
259.868	-11.15
260.137	-130.15
260.406	-16.15
260.675	70.85
260.944	29.85
261.214	-133.15
261.483	-62.15
261.752	160.85
262.021	-22.15
262.29	-179.15
262.559	-120.15
262.828	2.85
263.097	-61.15
263.366	-205.15
263.635	-93.15
263.905	123.85
264.174	3.85
264.443	-224.15
264.712	-126.15
264.981	32.85
265.25	-48.15
265.519	-145.15
265.788	-150.15
266.057	14.85
266.325	42.85
266.594	-59.15
266.863	-114.15
267.132	14.85
267.401	-5.15
267.67	-218.15
267.939	-162.15
268.208	36.85
268.477	69.85
268.745	-131.15
269.014	-94.15
269.283	135.85
269.552	28.85
269.821	-129.15
270.089	-21.15
270.358	-24.15
270.627	-26.15
270.896	-129.15
271.164	-159.15
271.433	-0.15
271.702	80.85
271.971	-144.15
272.239	-148.15
272.508	18.85
272.777	-45.15
273.045	-39.15
273.314	-41.15
273.583	89.85
273.851	-25.15
274.12	-165.15
274.388	-132.15
274.657	-2.15
274.926	-5.15
275.194	-163.15
275.463	-77.15
275.731	21.85
276	149.85
276.268	345.85
276.537	-95.15
276.805	8.85
277.074	22.85
277.342	-165.15
277.611	-97.15
277.879	104.85
278.148	27.85
278.416	-155.15
278.684	-130.15
278.953	-26.15
279.221	-55.15
279.49	-205.15
279.758	-101.15
280.026	-12.15
280.295	-10.15
280.563	-132.15
280.831	734.85
281.1	1864.85
281.368	171.85
281.636	-98.15
281.904	-117.15
282.173	-21.15
282.441	-66.15
282.709	-102.15
282.977	3.85
283.246	33.85
283.514	-30.15
283.782	-66.15
284.05	18.85
284.318	82.85
284.587	-23.15
284.855	-140.15
285.123	-69.15
285.391	63.85
285.659	49.85
285.927	-159.15
286.195	-74.15
286.463	46.85
286.732	-10.15
287	-119.15
287.268	-67.15
287.536	27.85
287.804	-46.15
288.072	-143.15
288.34	-97.15
288.608	52.85
288.876	-50.15
289.144	-121.15
289.412	-24.15
289.68	35.85
289.948	-33.15
290.215	-119.15
290.483	-120.15
290.751	90.85
291.019	78.85
291.287	-181.15
291.555	-137.15
291.823	27.85
292.091	-27.15
292.358	-83.15
292.626	-16.15
292.894	69.85
293.162	48.85
293.43	-116.15
293.697	-82.15
293.965	34.85
294.233	-29.15
294.501	-161.15
294.768	-67.15
295.036	55.85
295.304	24.85
295.572	-133.15
295.839	-115.15
296.107	89.85
296.375	-17.15
296.642	-143.15
296.91	-131.15
297.178	42.85
297.445	167.85
297.713	84.85
297.98	-91.15
298.248	-42.15
298.516	-50.15
298.783	-134.15
299.051	-145.15
299.318	9.85
299.586	-25.15
299.853	-103.15
300.121	-95.15
300.388	17.85
300.656	-36.15
300.923	-167.15
301.191	-64.15
301.458	33.85
301.726	-40.15
301.993	-168.15
302.26	-103.15
302.528	48.85
302.795	-5.15
303.063	-86.15
303.33	-75.15
303.597	21.85
303.865	9.85
304.132	-149.15
304.399	-142.15
304.667	-37.15
304.934	0.85
305.201	-120.15
305.469	-15.15
305.736	54.85
306.003	30.85
306.27	-65.15
306.538	-105.15
306.805	-17.15
307.072	-58.15
307.339	-96.15
307.606	-57.15
307.874	141.85
308.141	51.85
308.408	-134.15
308.675	-111.15
308.942	-66.15
309.209	-81.15
309.477	-142.15
309.744	-111.15
310.011	4.85
310.278	24.85
310.545	-52.15
310.812	-58.15
311.079	136.85
311.346	174.85
311.613	38.85
311.88	-34.15
312.147	-82.15
312.414	-55.15
312.681	-135.15
312.948	-45.15
313.215	120.85
313.482	72.85
313.749	-117.15
314.016	-221.15
314.283	-69.15
314.55	48.85
314.817	-115.15
315.083	-143.15
315.35	-90.15
315.617	-146.15
315.884	-148.15
316.151	55.85
316.418	162.85
316.684	-34.15
316.951	-215.15
317.218	-135.15
317.485	-31.15
317.752	-78.15
318.018	-131.15
318.285	-24.15
318.552	6.85
318.819	-78.15
319.085	-160.15
319.352	-77.15
319.619	23.85
319.885	-43.15
320.152	-212.15
320.419	-114.15
320.685	13.85
320.952	-47.15
321.219	-83.15
321.485	50.85
321.752	8.85
322.019	-59.15
322.285	10.85
322.552	-28.15
322.818	112.85
323.085	-44.15
323.351	-145.15
323.618	-23.15
323.884	39.85
324.151	-74.15
324.417	-44.15
324.684	-99.15
324.95	-73.15
325.217	-166.15
325.483	-186.15
325.75	-38.15
326.016	-6.15
326.283	-36.15
326.549	-209.15
326.815	-94.15
327.082	79.85
327.348	-6.15
327.615	-118.15
327.881	-45.15
328.147	93.85
328.414	118.85
328.68	16.85
328.946	-42.15
329.212	14.85
329.479	-15.15
329.745	-131.15
330.011	-110.15
330.278	-4.15
330.544	-62.15
330.81	-45.15
331.076	-50.15
331.342	-52.15
331.609	-35.15
331.875	-100.15
332.141	-113.15
332.407	10.85
332.673	-10.15
332.94	-29.15
333.206	-63.15
333.472	29.85
333.738	55.85
334.004	-140.15
334.27	-26.15
334.536	9.85
334.802	-48.15
335.068	-115.15
335.334	-0.15
335.6	16.85
335.866	-35.15
336.132	-178.15
336.398	-103.15
336.664	-35.15
336.93	-51.15
337.196	-93.15
337.462	-25.15
337.728	18.85
337.994	-53.15
338.26	-101.15
338.526	-59.15
338.792	-68.15
339.058	-64.15
339.324	-157.15
339.59	-28.15
339.856	41.85
340.121	-70.15
340.387	-138.15
340.653	72.85
340.919	152.85
341.185	52.85
341.45	-71.15
341.716	28.85
341.982	110.85
342.248	-79.15
342.514	-112.15
342.779	-26.15
343.045	15.85
343.311	-35.15
343.576	-115.15
343.842	-64.15
344.108	104.85
344.374	1.85
344.639	-123.15
344.905	-96.15
345.171	32.85
345.436	-74.15
345.702	-119.15
345.967	28.85
346.233	62.85
346.499	0.85
346.764	-199.15
347.03	-94.15
347.295	-53.15
347.561	-17.15
347.826	-62.15
348.092	-144.15
348.357	-42.15
348.623	-56.15
348.888	-166.15
349.154	-113.15
349.419	32.85
349.685	-9.15
349.95	-108.15
350.216	-75.15
350.481	25.85
350.747	-70.15
351.012	-207.15
351.277	-140.15
351.543	-6.15
351.808	-53.15
352.074	-208.15
352.339	-152.15
352.604	12.85
352.87	-19.15
353.135	-142.15
353.4	-102.15
353.666	-39.15
353.931	-61.15
354.196	-181.15
354.461	-161.15
354.727	1.85
354.992	-20.15
355.257	-172.15
355.522	-74.15
355.788	-36.15
356.053	18.85
356.318	-125.15
356.583	-140.15
356.848	68.85
357.113	170.85
357.379	-100.15
357.644	-138.15
357.909	54.85
358.174	78.85
358.439	-179.15
358.704	-113.15
358.969	2.85
359.234	14.85
359.499	-145.15
359.765	-83.15
360.03	24.85
360.295	11.85
360.56	-154.15
360.825	-98.15
361.09	102.85
361.355	-69.15
361.62	-117.15
361.885	-92.15
362.15	-95.15
362.415	-68.15
362.679	-137.15
362.944	13.85
363.209	30.85
363.474	36.85
363.739	-32.15
364.004	-137.15
364.269	-61.15
364.534	-24.15
364.799	-77.15
365.063	-75.15
365.328	36.85
365.593	22.85
365.858	-118.15
366.123	-125.15
366.387	28.85
366.652	-55.15
366.917	-168.15
367.182	-110.15
367.447	22.85
367.711	-26.15
367.976	-101.15
368.241	-42.15
368.505	26.85
368.77	-62.15
369.035	-88.15
369.299	-35.15
369.564	8.85
369.829	-77.15
370.093	-116.15
370.358	-133.15
370.623	-37.15
370.887	-23.15
371.152	-169.15
371.416	-95.15
371.681	-64.15
371.946	-149.15
372.21	-181.15
372.475	-45.15
372.739	-7.15
373.004	-66.15
373.268	-100.15
373.533	-44.15
373.797	-6.15
374.062	-5.15
374.326	-165.15
374.591	-89.15
374.855	0.85
375.12	-75.15
375.384	-243.15
375.648	-143.15
375.913	-9.15
376.177	-12.15
376.442	-144.15
376.706	-127.15
376.97	2.85
377.235	-34.15
377.499	-84.15
377.763	-80.15
378.028	-99.15
378.292	-51.15
378.556	-134.15
378.821	-190.15
379.085	-112.15
379.349	-186.15
379.614	-256.15
379.878	-129.15
380.142	46.85
380.406	-42.15
380.671	-58.15
380.935	76.85
381.199	165.85
381.463	25.85
381.727	-23.15
381.991	-77.15
382.256	-14.15
382.52	-67.15
382.784	-42.15
383.048	78.85
383.312	2.85
383.576	-42.15
383.84	-168.15
384.104	-103.15
384.369	-29.15
384.633	-147.15
384.897	-245.15
385.161	-118.15
385.425	-3.15
385.689	-80.15
385.953	-143.15
386.217	-155.15
386.481	-61.15
386.745	-57.15
387.009	-97.15
387.273	-119.15
387.537	-84.15
387.801	-67.15
388.064	-132.15
388.328	-43.15
388.592	-7.15
388.856	-84.15
389.12	-142.15
389.384	-68.15
389.648	-31.15
389.912	37.85
390.176	37.85
390.439	112.85
390.703	-67.15
390.967	-91.15
391.231	-174.15
391.495	-126.15
391.758	-53.15
392.022	-43.15
392.286	-159.15
392.55	-122.15
392.813	-30.15
393.077	13.85
393.341	-59.15
393.605	7.85
393.868	-38.15
394.132	-64.15
394.396	-104.15
394.659	17.85
394.923	-31.15
395.187	-89.15
395.45	-107.15
395.714	-65.15
395.978	-39.15
396.241	-22.15
396.505	-110.15
396.768	-59.15
397.032	6.85
397.295	16.85
397.559	-82.15
397.823	-128.15
398.086	0.85
398.35	-47.15
398.613	-175.15
398.877	-36.15
399.14	79.85
399.404	65.85
399.667	-51.15
399.931	-112.15
400.194	-10.15
400.457	-52.15
400.721	-98.15
400.984	17.85
401.248	-26.15
401.511	-71.15
401.775	-185.15
402.038	-144.15
402.301	60.85
402.565	13.85
402.828	-209.15
403.091	-130.15
403.355	-7.15
403.618	-4.15
403.881	-15.15
404.145	-58.15
404.408	12.85
404.671	-43.15
404.934	-42.15
405.198	-0.15
405.461	-9.15
405.724	14.85
405.987	-38.15
406.251	-2.15
406.514	87.85
406.777	-40.15
407.04	-124.15
407.303	-125.15
407.567	7.85
407.83	43.85
408.093	-151.15
408.356	-47.15
408.619	44.85
408.882	84.85
409.145	-29.15
409.408	-56.15
409.672	37.85
409.935	-35.15
410.198	-152.15
410.461	-62.15
410.724	81.85
410.987	-10.15
411.25	-150.15
411.513	-32.15
411.776	34.85
412.039	-84.15
412.302	-137.15
412.565	-113.15
412.828	-68.15
413.091	-85.15
413.354	-162.15
413.617	-130.15
413.879	-57.15
414.142	-38.15
414.405	-150.15
414.668	-80.15
414.931	36.85
415.194	1.85
415.457	-148.15
415.72	-69.15
415.983	-17.15
416.245	-37.15
416.508	-130.15
416.771	-148.15
417.034	-1.15
417.297	0.85
417.559	-65.15
417.822	-95.15
418.085	-0.15
418.348	-8.15
418.61	-164.15
418.873	-132.15
419.136	-88.15
419.399	-104.15
419.661	-97.15
419.924	-101.15
420.187	-22.15
420.449	-42.15
420.712	-116.15
420.975	-165.15
421.237	-44.15
421.5	-51.15
421.762	-21.15
422.025	18.85
422.288	49.85
422.55	-121.15
422.813	-215.15
423.075	-134.15
423.338	-57.15
423.601	-30.15
423.863	-66.15
424.126	-60.15
424.388	45.85
424.651	-35.15
424.913	-99.15
425.176	-82.15
425.438	-51.15
425.701	22.85
425.963	-124.15
426.225	-183.15
426.488	-67.15
426.75	-68.15
427.013	-158.15
427.275	-122.15
427.538	-80.15
427.8	-86.15
428.062	-147.15
428.325	-65.15
428.587	22.85
428.849	-43.15
429.112	-110.15
429.374	-126.15
429.636	-78.15
429.899	11.85
430.161	-107.15
430.423	-74.15
430.686	7.85
430.948	-9.15
431.21	-146.15
431.472	-153.15
431.735	-69.15
431.997	-79.15
432.259	-49.15
432.521	-129.15
432.783	-21.15
433.046	-52.15
433.308	-144.15
433.57	-93.15
433.832	119.85
434.094	-91.15
434.356	-209.15
434.618	-101.15
434.881	-27.15
435.143	-91.15
435.405	-71.15
435.667	-35.15
435.929	-26.15
436.191	-66.15
436.453	-144.15
436.715	-74.15
436.977	-13.15
437.239	-58.15
437.501	-168.15
437.763	-144.15
438.025	-5.15
438.287	-20.15
438.549	-122.15
438.811	-91.15
439.073	-54.15
439.335	-130.15
439.597	-144.15
439.859	-41.15
440.121	66.85
440.383	-118.15
440.645	-111.15
440.907	-48.15
441.168	-18.15
441.43	-66.15
441.692	-164.15
441.954	-122.15
442.216	-67.15
442.478	-97.15
442.74	-185.15
443.001	-83.15
443.263	69.85
443.525	3.85
443.787	-134.15
444.048	-110.15
444.31	-70.15
444.572	-90.15
444.834	-134.15
445.095	-101.15
445.357	29.85
445.619	-29.15
445.881	-223.15
446.142	-144.15
446.404	-88.15
446.666	-60.15
446.927	-118.15
447.189	-10.15
447.451	35.85
447.712	-39.15
447.974	-226.15
448.235	-177.15
448.497	-52.15
448.759	-120.15
449.02	-175.15
449.282	-189.15
449.543	-28.15
449.805	31.85
450.066	-192.15
450.328	-75.15
450.59	120.85
450.851	-32.15
451.113	-69.15
451.374	-138.15
451.636	-14.15
451.897	14.85
452.158	-58.15
452.42	41.85
452.681	64.85
452.943	-118.15
453.204	-200.15
453.466	-187.15
453.727	-98.15
453.988	-62.15
454.25	-173.15
454.511	-195.15
454.773	-64.15
455.034	69.85
455.295	-162.15
455.557	-182.15
455.818	-67.15
456.079	-46.15
456.341	50.85
456.602	9.85
456.863	-3.15
457.124	-80.15
457.386	-185.15
457.647	-185.15
457.908	-81.15
458.169	18.85
458.431	-161.15
458.692	-170.15
458.953	-62.15
459.214	-101.15
459.476	-92.15
459.737	-32.15
459.998	8.85
460.259	-73.15
460.52	-185.15
460.781	-111.15
461.043	68.85
461.304	-77.15
461.565	-208.15
461.826	-172.15
462.087	-50.15
462.348	3.85
462.609	-133.15
462.87	-66.15
463.131	-88.15
463.392	-15.15
463.653	-104.15
463.914	-78.15
464.175	-42.15
464.436	-97.15
464.697	-162.15
464.958	-142.15
465.219	-17.15
465.48	-58.15
465.741	-86.15
466.002	-121.15
466.263	-43.15
466.524	-54.15
466.785	-148.15
467.046	-117.15
467.307	-41.15
467.568	-106.15
467.829	-115.15
468.089	-61.15
468.35	-14.15
468.611	-82.15
468.872	-157.15
469.133	-50.15
469.394	17.85
469.655	61.85
469.915	-121.15
470.176	-193.15
470.437	-137.15
470.698	-57.15
470.958	-122.15
471.219	-184.15
471.48	-111.15
471.741	-123.15
472.001	-186.15
472.262	-121.15
472.523	-2.15
472.784	26.85
473.044	-113.15
473.305	-80.15
473.566	31.85
473.826	6.85
474.087	-122.15
474.348	-102.15
474.608	-49.15
474.869	-15.15
475.129	-130.15
475.39	-166.15
475.651	-73.15
475.911	-32.15
476.172	-177.15
476.432	-86.15
476.693	62.85
476.953	-30.15
477.214	-26.15
477.475	-22.15
477.735	-15.15
477.996	-9.15
478.256	-202.15
478.517	-156.15
478.777	-65.15
479.038	7.85
479.298	-19.15
479.558	-105.15
479.819	46.85
480.079	57.85
480.34	-35.15
480.6	-115.15
480.861	-14.15
481.121	-49.15
481.381	-153.15
481.642	-88.15
481.902	-69.15
482.162	-121.15
482.423	-105.15
482.683	-44.15
482.943	0.85
483.204	-87.15
483.464	-123.15
483.724	-84.15
483.985	-39.15
484.245	-17.15
484.505	-94.15
484.765	-19.15
485.026	56.85
485.286	26.85
485.546	-66.15
485.806	-6.15
486.067	18.85
486.327	-107.15
486.587	-170.15
486.847	-160.15
487.107	-39.15
487.368	-11.15
487.628	-69.15
487.888	-87.15
488.148	-13.15
488.408	-93.15
488.668	-80.15
488.928	-42.15
489.188	-33.15
489.449	65.85
489.709	-95.15
489.969	-111.15
490.229	-20.15
490.489	-47.15
490.749	-122.15
491.009	-184.15
491.269	-106.15
491.529	-90.15
491.789	-157.15
492.049	-71.15
492.309	40.85
492.569	-82.15
492.829	-117.15
493.089	-109.15
493.349	56.85
493.609	-34.15
493.869	-153.15
494.129	-75.15
494.389	55.85
494.648	-72.15
494.908	-176.15
495.168	-89.15
495.428	42.85
495.688	-52.15
495.948	-210.15
496.208	-184.15
496.467	-123.15
496.727	-59.15
496.987	-80.15
497.247	-101.15
497.507	-18.15
497.767	15.85
498.026	-166.15
498.286	-77.15
498.546	111.85
498.806	-20.15
499.065	29.85
499.325	-39.15
499.585	-38.15
499.845	-35.15
500.104	-30.15
500.364	69.85
500.624	3.85
500.883	-83.15
501.143	-43.15
501.403	19.85
501.662	89.85
501.922	-21.15
502.182	-159.15
502.441	-169.15
502.701	-87.15
502.96	26.85
503.22	-60.15
503.48	-103.15
503.739	-13.15
503.999	-61.15
504.258	-154.15
504.518	-87.15
504.777	15.85
505.037	-30.15
505.296	-103.15
505.556	-109.15
505.815	24.85
506.075	109.85
506.334	1.85
506.594	-153.15
506.853	-94.15
507.113	-90.15
507.372	-228.15
507.632	-154.15
507.891	-48.15
508.151	-13.15
508.41	-160.15
508.669	-120.15
508.929	7.85
509.188	-39.15
509.447	-97.15
509.707	-132.15
509.966	-47.15
510.226	-55.15
510.485	-91.15
510.744	-70.15
511.004	21.85
511.263	-65.15
511.522	-153.15
511.781	-121.15
512.041	10.85
512.3	-57.15
512.559	-32.15
512.818	-2.15
513.078	0.85
513.337	-12.15
513.596	-97.15
513.855	-100.15
514.115	16.85
514.374	-44.15
514.633	-147.15
514.892	-182.15
515.151	-19.15
515.41	31.85
515.67	-85.15
515.929	-135.15
516.188	-30.15
516.447	-57.15
516.706	-147.15
516.965	-114.15
517.224	-79.15
517.483	-84.15
517.743	-121.15
518.002	-54.15
518.261	39.85
518.52	-20.15
518.779	-148.15
519.038	-134.15
519.297	-80.15
519.556	-77.15
519.815	-169.15
520.074	-169.15
520.333	-80.15
520.592	-86.15
520.851	-157.15
521.11	-44.15
521.369	110.85
521.628	-69.15
521.887	-166.15
522.145	-88.15
522.404	-36.15
522.663	-40.15
522.922	-210.15
523.181	-185.15
523.44	-33.15
523.699	-1.15
523.958	-166.15
524.217	-150.15
524.475	-120.15
524.734	-150.15
524.993	-173.15
525.252	-115.15
525.511	-38.15
525.769	-85.15
526.028	-172.15
526.287	-102.15
526.546	-45.15
526.805	-64.15
527.063	-147.15
527.322	-152.15
527.581	-64.15
527.839	-54.15
528.098	-82.15
528.357	-56.15
528.616	-62.15
528.874	-67.15
529.133	-101.15
529.392	-61.15
529.65	-16.15
529.909	-42.15
530.168	-155.15
530.426	-113.15
530.685	10.85
530.943	-39.15
531.202	-151.15
531.461	-142.15
531.719	-14.15
531.978	-59.15
532.236	-133.15
532.495	-58.15
532.753	-6.15
533.012	-96.15
533.271	-161.15
533.529	-175.15
533.788	-84.15
534.046	-158.15
534.305	-197.15
534.563	19.85
534.822	85.85
535.08	-26.15
535.338	-121.15
535.597	-68.15
535.855	12.85
536.114	-55.15
536.372	-150.15
536.631	-87.15
536.889	20.85
537.147	-28.15
537.406	-202.15
537.664	-106.15
537.923	-33.15
538.181	-18.15
538.439	-161.15
538.698	-19.15
538.956	-23.15
539.214	-70.15
539.473	-120.15
539.731	-55.15
539.989	18.85
540.248	-59.15
540.506	-125.15
540.764	-106.15
541.022	9.85
541.281	30.85
541.539	-98.15
541.797	-139.15
542.055	7.85
542.314	84.85
542.572	36.85
542.83	-107.15
543.088	9.85
543.346	-33.15
543.604	-117.15
543.863	-18.15
544.121	116.85
544.379	39.85
544.637	-73.15
544.895	74.85
545.153	181.85
545.411	32.85
545.67	-113.15
545.928	-53.15
546.186	112.85
546.444	178.85
546.702	109.85
546.96	176.85
547.218	263.85
547.476	226.85
547.734	190.85
547.992	325.85
548.25	480.85
548.508	444.85
548.766	473.85
549.024	581.85
549.282	702.85
549.54	814.85
549.798	931.85
550.056	1057.85
550.314	1292.85
550.572	1372.85
550.83	1424.85
551.088	1726.85
551.346	2007.85
551.603	2187.85
551.861	2250.85
552.119	2525.85
552.377	2833.85
552.635	2889.85
552.893	2936.85
553.151	3163.85
553.409	3471.85
553.666	3641.85
553.924	3649.85
554.182	3734.85
554.44	3962.85
554.698	4124.85
554.955	4059.85
555.213	4074.85
555.471	4206.85
555.729	4134.85
555.986	3925.85
556.244	4008.85
556.502	4181.85
556.76	3941.85
557.017	3777.85
557.275	3674.85
557.533	3663.85
557.79	3465.85
558.048	3100.85
558.306	3012.85
558.563	2936.85
558.821	2659.85
559.079	2454.85
559.336	2275.85
559.594	2128.85
559.852	1882.85
560.109	1667.85
560.367	1604.85
560.624	1519.85
560.882	1321.85
561.14	1169.85
561.397	1148.85
561.655	942.85
561.912	852.85
562.17	629.85
562.427	611.85
562.685	583.85
562.942	502.85
563.2	346.85
563.457	360.85
563.715	344.85
563.972	342.85
564.23	126.85
564.487	83.85
564.745	208.85
565.002	213.85
565.26	63.85
565.517	36.85
565.774	97.85
566.032	84.85
566.289	14.85
566.547	22.85
566.804	118.85
567.061	57.85
567.319	-74.15
567.576	23.85
567.833	146.85
568.091	174.85
568.348	-15.15
568.605	19.85
568.863	61.85
569.12	27.85
569.377	-86.15
569.635	-87.15
569.892	-22.15
570.149	-46.15
570.406	-178.15
570.664	-137.15
570.921	-10.15
571.178	-87.15
571.435	-69.15
571.693	-58.15
571.95	10.85
572.207	-48.15
572.464	-73.15
572.721	9.85
572.979	97.85
573.236	20.85
573.493	-102.15
573.75	-81.15
574.007	54.85
574.264	-42.15
574.521	-101.15
574.779	-70.15
575.036	1.85
575.293	-52.15
575.55	-123.15
575.807	-112.15
576.064	0.85
576.321	-43.15
576.578	-198.15
576.835	-131.15
577.092	90.85
577.349	-0.15
577.606	-202.15
577.863	-134.15
578.12	-15.15
578.377	-2.15
578.634	-210.15
578.891	-131.15
579.148	-33.15
579.405	-105.15
579.662	-194.15
579.919	-88.15
580.176	-63.15
580.433	-50.15
580.69	-100.15
580.947	-105.15
581.204	-9.15
581.461	-43.15
581.717	-153.15
581.974	4.85
582.231	15.85
582.488	-73.15
582.745	-139.15
583.002	-118.15
583.259	14.85
583.515	-34.15
583.772	-175.15
584.029	-119.15
584.286	27.85
584.543	-142.15
584.799	-164.15
585.056	-82.15
585.313	-0.15
585.57	28.85
585.826	-125.15
586.083	-45.15
586.34	154.85
586.597	-35.15
586.853	-201.15
587.11	-171.15
587.367	25.85
587.623	75.85
587.88	-30.15
588.137	-112.15
588.393	-13.15
588.65	-86.15
588.907	-169.15
589.163	-98.15
589.42	-42.15
589.677	-19.15
589.933	-138.15
590.19	-43.15
590.446	58.85
590.703	47.85
590.96	-183.15
591.216	-201.15
591.473	-72.15
591.729	-68.15
591.986	-81.15
592.242	-33.15
592.499	142.85
592.755	0.85
593.012	-194.15
593.268	-101.15
593.525	-47.15
593.781	-25.15
594.038	-117.15
594.294	-117.15
594.551	-56.15
594.807	-123.15
595.064	-149.15
595.32	-158.15
595.576	-26.15
595.833	28.85
596.089	-99.15
596.346	-31.15
596.602	20.85
596.858	85.85
597.115	-97.15
597.371	-29.15
597.628	-18.15
597.884	-74.15
598.14	-139.15
598.397	-4.15
598.653	77.85
598.909	-30.15
599.166	-173.15
599.422	-108.15
599.678	-15.15
599.934	-46.15
600.191	-164.15
600.447	-110.15
600.703	-56.15
600.959	-85.15
601.216	-219.15
601.472	-171.15
601.728	-40.15
601.984	-92.15
602.241	-184.15
602.497	-108.15
602.753	23.85
603.009	-67.15
603.265	-149.15
603.521	-9.15
603.778	69.85
604.034	-119.15
604.29	-217.15
604.546	-151.15
604.802	-28.15
605.058	-77.15
605.314	-186.15
605.571	-122.15
605.827	-70.15
606.083	-69.15
606.339	-175.15
606.595	-59.15
606.851	27.85
607.107	37.85
607.363	-155.15
607.619	-117.15
607.875	72.85
608.131	22.85
608.387	-226.15
608.643	-162.15
608.899	-69.15
609.155	-70.15
609.411	-78.15
609.667	-57.15
609.923	-56.15
610.179	-91.15
610.435	-263.15
610.691	-191.15
610.947	-30.15
611.203	-93.15
611.459	-141.15
611.714	-43.15
611.97	76.85
612.226	25.85
612.482	-174.15
612.738	-84.15
612.994	125.85
613.25	-27.15
613.505	-167.15
613.761	-123.15
614.017	-29.15
614.273	-64.15
614.529	-123.15
614.785	-163.15
615.04	-45.15
615.296	-38.15
615.552	-119.15
615.808	-81.15
616.063	6.85
616.319	-24.15
616.575	-133.15
616.831	-100.15
617.086	111.85
617.342	56.85
617.598	-72.15
617.854	-12.15
618.109	62.85
618.365	-112.15
618.621	-173.15
618.876	-57.15
619.132	26.85
619.388	-17.15
619.643	-167.15
619.899	-66.15
620.155	26.85
620.41	15.85
620.666	-124.15
620.921	-86.15
621.177	55.85
621.433	59.85
621.688	-55.15
621.944	-137.15
622.199	-46.15
622.455	-32.15
622.71	-145.15
622.966	-117.15
623.221	-108.15
623.477	-97.15
623.732	-89.15
623.988	-152.15
624.243	-7.15
624.499	1.85
624.754	-163.15
625.01	-136.15
625.265	-34.15
625.521	62.85
625.776	-56.15
626.032	-50.15
626.287	-20.15
626.543	-67.15
626.798	-106.15
627.053	-66.15
627.309	-25.15
627.564	-86.15
627.82	-73.15
628.075	8.85
628.33	-15.15
628.586	-129.15
628.841	-231.15
629.096	-105.15
629.352	-17.15
629.607	-119.15
629.862	-147.15
630.118	-59.15
630.373	-87.15
630.628	-38.15
630.884	-155.15
631.139	-94.15
631.394	54.85
631.649	-29.15
631.905	-166.15
632.16	-57.15
632.415	124.85
632.67	-49.15
632.926	-178.15
633.181	-185.15
633.436	-33.15
633.691	-87.15
633.946	-225.15
634.202	-202.15
634.457	-31.15
634.712	-73.15
634.967	-183.15
635.222	-212.15
635.477	-100.15
635.733	-96.15
635.988	-207.15
636.243	-169.15
636.498	-27.15
636.753	-49.15
637.008	-154.15
637.263	-83.15
637.518	-12.15
637.773	-58.15
638.028	-110.15
638.283	-83.15
638.539	21.85
638.794	-20.15
639.049	-153.15
639.304	-153.15
639.559	-77.15
639.814	-101.15
640.069	-149.15
640.324	-122.15
640.579	-23.15
640.834	-39.15
641.089	-150.15
641.344	-86.15
641.598	124.85
641.853	15.85
642.108	-146.15
642.363	-206.15
642.618	-36.15
642.873	-91.15
643.128	-190.15
643.383	-124.15
643.638	-26.15
643.893	26.85
644.148	-59.15
644.402	-134.15
644.657	-17.15
644.912	-71.15
645.167	-103.15
645.422	-54.15
645.677	-50.15
645.931	0.85
646.186	0.85
646.441	-82.15
646.696	-94.15
646.951	-94.15
647.205	-126.15
647.46	-96.15
647.715	-66.15
647.97	88.85
648.224	200.85
648.479	-23.15
648.734	92.85
648.989	33.85
649.243	-89.15
649.498	-122.15
649.753	-61.15
650.007	-19.15
650.262	-77.15
650.517	-95.15
650.771	-57.15
651.026	-108.15
651.281	-202.15
651.535	-80.15
651.79	-48.15
652.045	-61.15
652.299	-135.15
652.554	-125.15
652.809	-19.15
653.063	114.85
653.318	-5.15
653.572	-109.15
653.827	50.85
654.081	-27.15
654.336	-186.15
654.591	-175.15
654.845	-46.15
655.1	-90.15
655.354	-143.15
655.609	-65.15
655.863	30.85
656.118	-9.15
656.372	-151.15
656.627	-129.15
656.881	-11.15
657.136	-67.15
657.39	-178.15
657.645	-66.15
657.899	66.85
658.153	-39.15
658.408	-130.15
658.662	-66.15
658.917	-35.15
659.171	-110.15
659.426	-183.15
659.68	-130.15
659.934	-35.15
660.189	-57.15
660.443	-145.15
660.697	7.85
660.952	86.85
661.206	-65.15
661.46	-208.15
661.715	-132.15
661.969	-20.15
662.223	-60.15
662.478	-143.15
662.732	-77.15
662.986	-36.15
663.241	-34.15
663.495	-171.15
663.749	-117.15
664.003	4.85
664.258	-69.15
664.512	-131.15
664.766	-71.15
665.02	-20.15
665.275	-2.15
665.529	-177.15
665.783	-130.15
666.037	-45.15
666.291	-64.15
666.546	-119.15
666.8	-94.15
667.054	-104.15
667.308	-72.15
667.562	-235.15
667.816	-145.15
668.071	-41.15
668.325	-144.15
668.579	-140.15
668.833	-86.15
669.087	40.85
669.341	-38.15
669.595	-168.15
669.849	-113.15
670.103	-62.15
670.357	-63.15
670.612	-117.15
670.866	-111.15
671.12	-47.15
671.374	-70.15
671.628	-96.15
671.882	-120.15
672.136	-57.15
672.39	-67.15
672.644	-212.15
672.898	-57.15
673.152	91.85
673.406	14.85
673.66	-87.15
673.914	-37.15
674.168	30.85
674.422	-49.15
674.675	-151.15
674.929	-85.15
675.183	33.85
675.437	-20.15
675.691	-87.15
675.945	-35.15
676.199	81.85
676.453	-28.15
676.707	-181.15
676.961	-165.15
677.214	-71.15
677.468	-52.15
677.722	-63.15
677.976	-91.15
678.23	-36.15
678.484	-11.15
678.737	-156.15
678.991	-111.15
679.245	-46.15
679.499	-86.15
679.753	-149.15
680.006	-62.15
680.26	36.85
680.514	25.85
680.768	-113.15
681.021	-43.15
681.275	-38.15
681.529	-34.15
681.783	-105.15
682.036	-102.15
682.29	-97.15
682.544	-67.15
682.797	-103.15
683.051	-121.15
683.305	-71.15
683.559	-64.15
683.812	-46.15
684.066	-62.15
684.32	0.85
684.573	-59.15
684.827	-57.15
685.08	-29.15
685.334	52.85
685.588	-26.15
685.841	-176.15
686.095	-41.15
686.348	-12.15
686.602	-13.15
686.856	-37.15
687.109	-94.15
687.363	-57.15
687.616	-98.15
687.87	-218.15
688.123	-160.15
688.377	-52.15
688.63	-16.15
688.884	-22.15
689.137	74.85
689.391	84.85
689.644	-85.15
689.898	-187.15
690.151	-168.15
690.405	-36.15
690.658	-59.15
690.912	-107.15
691.165	-115.15
691.419	-65.15
691.672	-32.15
691.926	-97.15
692.179	-88.15
692.432	-10.15
692.686	-66.15
692.939	-191.15
693.193	-157.15
693.446	15.85
693.699	-12.15
693.953	-20.15
694.206	-65.15
694.459	16.85
694.713	39.85
694.966	-142.15
695.219	-131.15
695.473	-30.15
695.726	-131.15
695.979	-193.15
696.233	-71.15
696.486	-0.15
696.739	-42.15
696.992	-146.15
697.246	-33.15
697.499	39.85
697.752	-130.15
698.006	-150.15
698.259	-45.15
698.512	-64.15
698.765	-98.15
699.018	-130.15
699.272	-44.15
699.525	-84.15
699.778	-127.15
700.031	-154.15
700.284	-134.15
700.538	-34.15
700.791	-44.15
701.044	-100.15
701.297	-77.15
701.55	-46.15
701.803	-83.15
702.056	-187.15
702.31	-123.15
702.563	-6.15
702.816	-89.15
703.069	-243.15
703.322	-157.15
703.575	-30.15
703.828	12.85
704.081	-108.15
704.334	-123.15
704.587	-57.15
704.84	-128.15
705.093	-138.15
705.346	1.85
705.599	-8.15
705.853	-13.15
706.106	15.85
706.359	247.85
706.612	-6.15
706.865	19.85
707.118	-158.15
707.37	-89.15
707.623	26.85
707.876	-13.15
708.129	-58.15
708.382	25.85
708.635	104.85
708.888	-48.15
709.141	-152.15
709.394	-40.15
709.647	41.85
709.9	-87.15
710.153	-192.15
710.406	-63.15
710.658	19.85
710.911	-56.15
711.164	-173.15
711.417	-142.15
711.67	-81.15
711.923	-34.15
712.176	-164.15
712.428	-116.15
712.681	-49.15
712.934	-18.15
713.187	-113.15
713.44	-157.15
713.692	-17.15
713.945	-92.15
714.198	-182.15
714.451	-205.15
714.704	-45.15
714.956	1.85
715.209	6.85
715.462	-28.15
715.715	-2.15
715.967	-20.15
716.22	-147.15
716.473	-138.15
716.725	13.85
716.978	-37.15
717.231	-42.15
717.484	-16.15
717.736	-93.15
717.989	-169.15
718.242	-215.15
718.494	-105.15
718.747	24.85
718.999	-52.15
719.252	-44.15
719.505	-42.15
719.757	-25.15
720.01	-51.15
720.263	-104.15
720.515	-85.15
720.768	2.85
721.02	-9.15
721.273	-137.15
721.525	-176.15
721.778	-65.15
722.031	20.85
722.283	-138.15
722.536	-138.15
722.788	-53.15
723.041	-94.15
723.293	-152.15
723.546	-155.15
723.798	-33.15
724.051	2.85
724.303	-41.15
724.556	-27.15
724.808	102.85
725.061	7.85
725.313	-93.15
725.566	-91.15
725.818	-43.15
726.071	-66.15
726.323	-198.15
726.575	-119.15
726.828	26.85
727.08	34.85
727.333	-139.15
727.585	-119.15
727.837	-54.15
728.09	-35.15
728.342	-170.15
728.595	-76.15
728.847	89.85
729.099	-148.15
729.352	-167.15
729.604	-127.15
729.856	-44.15
730.109	-80.15
730.361	-154.15
730.613	-63.15
730.866	26.85
731.118	-112.15
731.37	-174.15
731.622	-152.15
731.875	-71.15
732.127	-27.15
732.379	-79.15
732.631	-9.15
732.884	-9.15
733.136	-67.15
733.388	-161.15
733.64	-103.15
733.893	25.85
734.145	-30.15
734.397	-178.15
734.649	-167.15
734.901	-55.15
735.154	-117.15
735.406	-199.15
735.658	-133.15
735.91	-3.15
736.162	-64.15
736.414	-171.15
736.667	-89.15
736.919	-34.15
737.171	-134.15
737.423	-144.15
737.675	-107.15
737.927	9.85
738.179	-47.15
738.431	-94.15
738.684	-166.15
738.936	-89.15
739.188	-24.15
739.44	-205.15
739.692	-203.15
739.944	-156.15
740.196	-132.15
740.448	-190.15
740.7	-181.15
740.952	-105.15
741.204	-102.15
741.456	-197.15
741.708	-118.15
741.96	-108.15
742.212	-37.15
742.464	-55.15
742.716	-175.15
742.968	-70.15
743.22	-137.15
743.472	-194.15
743.724	-132.15
743.976	17.85
744.228	16.85
744.48	-223.15
744.732	-178.15
744.983	-29.15
745.235	-60.15
745.487	-129.15
745.739	-88.15
745.991	-107.15
746.243	-22.15
746.495	-193.15
746.747	-189.15
746.999	-74.15
747.25	-74.15
747.502	-119.15
747.754	-22.15
748.006	-84.15
748.258	14.85
748.51	25.85
748.761	-122.15
749.013	-52.15
749.265	21.85
749.517	-10.15
749.768	37.85
750.02	48.85
750.272	-16.15
750.524	-176.15
750.776	-212.15
751.027	-0.15
751.279	26.85
751.531	-185.15
751.782	-95.15
752.034	27.85
752.286	-85.15
752.538	-222.15
752.789	-98.15
753.041	-15.15
753.293	-39.15
753.544	-123.15
753.796	-97.15
754.048	4.85
754.299	-4.15
754.551	-69.15
754.803	-121.15
755.054	-95.15
755.306	-31.15
755.558	-137.15
755.809	-111.15
756.061	56.85
756.312	-69.15
756.564	-107.15
756.816	-80.15
757.067	-58.15
757.319	-100.15
757.57	-123.15
757.822	-40.15
758.073	41.85
758.325	-15.15
758.577	-160.15
758.828	-147.15
759.08	69.85
759.331	76.85
759.583	-119.15
759.834	-17.15
760.086	-54.15
760.337	-85.15
760.589	-130.15
760.84	-115.15
761.092	-50.15
761.343	-73.15
761.595	-220.15
761.846	-53.15
762.097	-33.15
762.349	-87.15
762.6	-245.15
762.852	-96.15
763.103	57.85
763.355	-73.15
763.606	-179.15
763.857	-42.15
764.109	58.85
764.36	-46.15
764.612	-115.15
764.863	-27.15
765.114	-4.15
765.366	-137.15
765.617	-223.15
765.868	-150.15
766.12	1.85
766.371	9.85
766.622	-175.15
766.874	-112.15
767.125	20.85
767.376	-106.15
767.628	-161.15
767.879	-103.15
768.13	-10.15
768.381	-29.15
768.633	-74.15
768.884	-93.15
769.135	-15.15
769.386	-37.15
769.638	-99.15
769.889	-89.15
770.14	-32.15
770.391	-125.15
770.643	-187.15
770.894	-191.15
771.145	-74.15
771.396	-128.15
771.647	-210.15
771.899	-87.15
772.15	0.85
772.401	-53.15
772.652	-187.15
772.903	-167.15
773.154	185.85
773.406	432.85
773.657	-108.15
773.908	-122.15
774.159	-41.15
774.41	-25.15
774.661	-141.15
774.912	-103.15
775.163	55.85
775.414	49.85
775.666	-177.15
775.917	-151.15
776.168	-109.15
776.419	-95.15
776.67	-181.15
776.921	-189.15
777.172	-95.15
777.423	-66.15
777.674	-48.15
777.925	-53.15
778.176	-117.15
778.427	-91.15
778.678	-170.15
778.929	-153.15
779.18	-67.15
779.431	-148.15
779.682	-137.15
779.933	-81.15
780.184	-49.15
780.435	-79.15
780.686	-121.15
780.937	-66.15
781.188	-22.15
781.439	69.85
781.69	-9.15
781.941	-62.15
782.191	-29.15
782.442	-57.15
782.693	-162.15
782.944	-167.15
783.195	-65.15
783.446	-40.15
783.697	-35.15
783.948	-146.15
784.199	-108.15
784.449	-142.15
784.7	-119.15
784.951	-94.15
785.202	46.85
785.453	5.85
785.704	-175.15
785.954	-184.15
786.205	-93.15
786.456	-153.15
786.707	-233.15
786.958	-181.15
787.208	-75.15
787.459	-140.15
787.71	-117.15
787.961	-123.15
788.211	-73.15
788.462	-76.15
788.713	-134.15
788.964	-130.15
789.214	-38.15
789.465	-27.15
789.716	-94.15
789.967	-92.15
790.217	-116.15
790.468	-124.15
790.719	-193.15
790.969	-149.15
791.22	-96.15
791.471	-34.15
791.721	-0.15
791.972	-111.15
792.223	-32.15
792.473	-98.15
792.724	-117.15
792.975	-143.15
793.225	-69.15
793.476	-103.15
793.726	-178.15
793.977	-67.15
794.228	45.85
794.478	-51.15
794.729	-153.15
794.979	-62.15
795.23	-37.15
795.481	-79.15
795.731	-162.15
795.982	-107.15
796.232	-128.15
796.483	-163.15
796.733	-203.15
796.984	-133.15
797.234	-57.15
797.485	-32.15
797.735	-183.15
797.986	-157.15
798.236	-38.15
798.487	-111.15
798.737	-108.15
798.988	-23.15
799.238	22.85
799.489	-73.15
799.739	-156.15
799.99	-96.15
800.24	-7.15
800.491	44.85
800.741	-95.15
800.991	-153.15
801.242	-92.15
801.492	-71.15
801.743	-138.15
801.993	86.85
802.244	267.85
802.494	-39.15
802.744	-87.15
802.995	-71.15
803.245	-57.15
803.495	-86.15
803.746	-139.15
803.996	-46.15
804.246	-55.15
804.497	-55.15
804.747	-181.15
804.997	-99.15
805.248	-77.15
805.498	-118.15
805.748	-112.15
805.999	-205.15
806.249	-124.15
806.499	-116.15
806.75	-210.15
807	-177.15
807.25	-67.15
807.5	-125.15
807.751	-126.15
808.001	-72.15
808.251	-47.15
808.501	26.85
808.752	9.85
809.002	-65.15
809.252	-65.15
809.502	-119.15
809.752	-142.15
810.003	-184.15
810.253	-110.15
810.503	-68.15
810.753	-48.15
811.003	-31.15
811.254	-2.15
811.504	-78.15
811.754	-105.15
812.004	-93.15
812.254	136.85
812.504	-41.15
812.754	-143.15
813.005	-63.15
813.255	25.85
813.505	-48.15
813.755	-148.15
814.005	-65.15
814.255	-54.15
814.505	-102.15
814.755	-199.15
815.005	-171.15
815.255	-61.15
815.505	-103.15
815.756	-54.15
816.006	-61.15
816.256	-107.15
816.506	-143.15
816.756	-210.15
817.006	-159.15
817.256	-55.15
817.506	-63.15
817.756	-122.15
818.006	-101.15
818.256	-64.15
818.506	-78.15
818.756	-193.15
819.006	-139.15
819.256	-50.15
819.506	-98.15
819.756	-152.15
820.006	-81.15
820.255	-29.15
820.505	-49.15
820.755	-174.15
821.005	-123.15
821.255	-5.15
821.505	-61.15
821.755	-134.15
822.005	-58.15
822.255	9.85
822.505	-84.15
822.755	-76.15
823.004	-196.15
823.254	-169.15
823.504	-78.15
823.754	-63.15
824.004	-140.15
824.254	-31.15
824.504	-34.15
824.753	-27.15
825.003	-46.15
825.253	11.85
825.503	-78.15
825.753	-129.15
826.002	-57.15
826.252	142.85
826.502	-57.15
826.752	-143.15
827.002	-120.15
827.251	-14.15
827.501	-82.15
827.751	-163.15
828.001	-123.15
828.25	-7.15
828.5	-154.15
828.75	-186.15
829	-93.15
829.249	34.85
829.499	-112.15
829.749	-137.15
829.998	-59.15
830.248	-18.15
830.498	-150.15
830.748	-144.15
830.997	-87.15
831.247	0.85
831.497	-11.15
831.746	-107.15
831.996	-23.15
832.246	94.85
832.495	96.85
832.745	-159.15
832.994	-151.15
833.244	15.85
833.494	-94.15
833.743	-177.15
833.993	-115.15
834.243	-35.15
834.492	-56.15
834.742	-82.15
834.991	-86.15
835.241	81.85
835.49	-93.15
835.74	-205.15
835.99	-118.15
836.239	-13.15
836.489	13.85
836.738	-109.15
836.988	-221.15
837.237	-89.15
837.487	23.85
837.736	-85.15
837.986	-120.15
838.235	-58.15
838.485	-87.15
838.734	-134.15
838.984	-42.15
839.233	-62.15
839.483	-163.15
839.732	-175.15
839.982	-98.15
840.231	-28.15
840.481	-31.15
840.73	-147.15
840.979	-81.15
841.229	-79.15
841.478	-95.15
841.728	-209.15
841.977	-218.15
842.227	-145.15
842.476	-183.15
842.725	-215.15
842.975	-155.15
843.224	-38.15
843.474	9.85
843.723	-110.15
843.972	-112.15
844.222	-68.15
844.471	-19.15
844.72	-136.15
844.97	-134.15
845.219	-29.15
845.468	-22.15
845.718	-95.15
845.967	-77.15
846.216	-34.15
846.466	18.85
846.715	-107.15
846.964	-86.15
847.214	-89.15
847.463	-134.15
847.712	-111.15
847.961	-137.15
848.211	-64.15
848.46	-73.15
848.709	-131.15
848.958	-154.15
849.208	-77.15
849.457	-104.15
849.706	-80.15
849.955	-114.15
850.205	-126.15
850.454	10.85
850.703	54.85
850.952	-23.15
851.201	7.85
851.451	-50.15
851.7	-51.15
851.949	-170.15
852.198	-64.15
852.447	-77.15
852.696	-155.15
852.946	-118.15
853.195	-9.15
853.444	-13.15
853.693	-201.15
853.942	-194.15
854.191	-95.15
854.44	-64.15
854.689	-105.15
854.939	-132.15
855.188	-167.15
855.437	-108.15
855.686	-131.15
855.935	-101.15
856.184	-45.15
856.433	-1.15
856.682	-77.15
856.931	-70.15
857.18	-38.15
857.429	-128.15
857.678	-161.15
857.927	-82.15
858.176	-71.15
858.425	-141.15
858.674	-217.15
858.924	-101.15
859.173	-86.15
859.422	-73.15
859.671	-195.15
859.92	-119.15
860.169	-55.15
860.417	-36.15
860.666	-109.15
860.915	-150.15
861.164	-98.15
861.413	-138.15
861.662	-195.15
861.911	-163.15
862.16	-34.15
862.409	-66.15
862.658	-212.15
862.907	-162.15
863.156	-43.15
863.405	-55.15
863.654	-167.15
863.903	-213.15
864.151	-116.15
864.4	-77.15
864.649	-125.15
864.898	-79.15
865.147	-41.15
865.396	-5.15
865.645	-155.15
865.894	-93.15
866.142	34.85
866.391	-69.15
866.64	-177.15
866.889	-84.15
867.138	89.85
867.387	-27.15
867.635	-143.15
867.884	-83.15
868.133	24.85
868.382	-67.15
868.631	-187.15
868.879	-176.15
869.128	-67.15
869.377	-73.15
869.626	-125.15
869.874	-134.15
870.123	-23.15
870.372	-57.15
870.621	-205.15
870.869	-154.15
871.118	-45.15
871.367	-74.15
871.616	-183.15
871.864	-66.15
872.113	-15.15
872.362	-63.15
872.61	-114.15
872.859	-59.15
873.108	-1.15
873.357	-111.15
873.605	-195.15
873.854	-162.15
874.103	-117.15
874.351	-122.15
874.6	-147.15
874.848	-102.15
875.097	-40.15
875.346	-58.15
875.594	-166.15
875.843	-47.15
876.092	98.85
876.34	-29.15
876.589	-136.15
876.837	-222.15
877.086	-131.15
877.335	-51.15
877.583	-108.15
877.832	-65.15
878.08	53.85
878.329	-42.15
878.578	-118.15
878.826	-93.15
879.075	-5.15
879.323	-10.15
879.572	-106.15
879.82	8.85
880.069	-24.15
880.317	-5.15
880.566	-144.15
880.814	-39.15
881.063	76.85
881.311	-23.15
881.56	7.85
881.808	-95.15
882.057	-27.15
882.305	-64.15
882.554	-52.15
882.802	-124.15
883.051	-89.15
883.299	-59.15
883.548	-109.15
883.796	-16.15
884.045	-28.15
884.293	-96.15
884.541	-205.15
884.79	-204.15
885.038	-91.15
885.287	-94.15
885.535	-79.15
885.783	-48.15
886.032	-101.15
886.28	-137.15
886.529	-183.15
886.777	-118.15
887.025	48.85
887.274	-67.15
887.522	-145.15
887.77	-127.15
888.019	-97.15
888.267	-114.15
888.516	-195.15
888.764	-147.15
889.012	-82.15
889.261	-91.15
889.509	-165.15
889.757	-146.15
890.005	-95.15
890.254	-138.15
890.502	-117.15
890.75	78.85
890.999	69.85
891.247	-10.15
891.495	-62.15
891.743	-80.15
891.992	65.85
892.24	-61.15
892.488	-183.15
892.737	-155.15
892.985	-51.15
893.233	-42.15
893.481	-110.15
893.729	-137.15
893.978	21.85
894.226	49.85
894.474	-103.15
894.722	-126.15
894.97	-78.15
895.219	-92.15
895.467	-85.15
895.715	-34.15
895.963	-71.15
896.211	-123.15
896.46	-198.15
896.708	-78.15
896.956	-6.15
897.204	64.85
897.452	-29.15
897.7	-106.15
897.948	-27.15
898.197	-62.15
898.445	-125.15
898.693	-95.15
898.941	-30.15
899.189	-47.15
899.437	-105.15
899.685	0.85
899.933	-56.15
900.181	-52.15
900.43	-160.15
900.678	-130.15
900.926	-45.15
901.174	-79.15
901.422	-138.15
901.67	-100.15
901.918	-24.15
902.166	-88.15
902.414	-210.15
902.662	-162.15
902.91	-42.15
903.158	-53.15
903.406	-132.15
903.654	-127.15
903.902	-70.15
904.15	-78.15
904.398	-199.15
904.646	-102.15
904.894	-6.15
905.142	8.85
905.39	-45.15
905.638	-128.15
905.886	-83.15
906.134	-85.15
906.382	-105.15
906.63	-135.15
906.878	-55.15
907.126	-76.15
907.374	-142.15
907.622	-134.15
907.869	-21.15
908.117	-30.15
908.365	-94.15
908.613	-129.15
908.861	-118.15
909.109	-152.15
909.357	-185.15
909.605	-105.15
909.853	-17.15
910.1	-90.15
910.348	-263.15
910.596	-202.15
910.844	-24.15
911.092	10.85
911.34	-109.15
911.588	-92.15
911.835	-23.15
912.083	-50.15
912.331	-59.15
912.579	-32.15
912.827	129.85
913.075	-26.15
913.322	-155.15
913.57	-126.15
913.818	7.85
914.066	-55.15
914.313	-127.15
914.561	-56.15
914.809	-39.15
915.057	-104.15
915.305	-107.15
915.552	-87.15
915.8	0.85
916.048	-95.15
916.296	-154.15
916.543	-43.15
916.791	30.85
917.039	-51.15
917.286	-171.15
917.534	-137.15
917.782	-1.15
918.03	-79.15
918.277	-199.15
918.525	-199.15
918.773	-75.15
919.02	-101.15
919.268	-151.15
919.516	-114.15
919.763	-98.15
920.011	-87.15
920.259	-184.15
920.506	-89.15
920.754	-6.15
921.002	-17.15
921.249	-64.15
921.497	-102.15
921.745	-71.15
921.992	-49.15
922.24	-179.15
922.487	-60.15
922.735	112.85
922.983	17.85
923.23	-85.15
923.478	-129.15
923.725	-44.15
923.973	-39.15
924.221	-65.15
924.468	-7.15
924.716	-32.15
924.963	-61.15
925.211	-119.15
925.458	-49.15
925.706	53.85
925.953	90.85
926.201	-93.15
926.448	-126.15
926.696	-27.15
926.944	-52.15
927.191	-112.15
927.439	-97.15
927.686	-79.15
927.934	-48.15
928.181	-134.15
928.429	-154.15
928.676	-79.15
928.923	-139.15
929.171	-179.15
929.418	-34.15
929.666	24.85
929.913	8.85
930.161	-193.15
930.408	-156.15
930.656	-59.15
930.903	-33.15
931.151	-154.15
931.398	-105.15
931.645	12.85
931.893	-99.15
932.14	-142.15
932.388	-117.15
932.635	51.85
932.882	105.85
933.13	-32.15
933.377	-103.15
933.625	-2.15
933.872	-94.15
934.119	-153.15
934.367	-83.15
934.614	-111.15
934.861	-113.15
935.109	-109.15
935.356	-54.15
935.603	-18.15
935.851	-91.15
936.098	-141.15
936.345	-33.15
936.593	-8.15
936.84	-69.15
937.087	-192.15
937.335	-126.15
937.582	-39.15
937.829	-37.15
938.077	-83.15
938.324	-94.15
938.571	-16.15
938.818	-89.15
939.066	-138.15
939.313	-159.15
939.56	-42.15
939.807	-32.15
940.055	-158.15
940.302	-115.15
940.549	38.85
940.796	-41.15
941.044	-91.15
941.291	-67.15
941.538	102.85
941.785	-32.15
942.033	-91.15
942.28	-20.15
942.527	12.85
942.774	-10.15
943.021	-167.15
943.269	-131.15
943.516	-26.15
943.763	-26.15
944.01	-82.15
944.257	-13.15
944.504	40.85
944.752	7.85
944.999	-45.15
945.246	-122.15
945.493	-41.15
945.74	-48.15
945.987	-126.15
946.234	-66.15
946.482	15.85
946.729	-89.15
946.976	-124.15
947.223	-107.15
947.47	40.85
947.717	19.85
947.964	15.85
948.211	-39.15
948.458	25.85
948.705	-35.15
948.952	-138.15
949.2	-62.15
949.447	60.85
949.694	57.85
949.941	-94.15
950.188	-131.15
950.435	-106.15
950.682	-71.15
950.929	-179.15
951.176	-125.15
951.423	40.85
951.67	2.85
951.917	-47.15
952.164	-59.15
952.411	19.85
952.658	73.85
952.905	-83.15
953.152	-149.15
953.399	-17.15
953.646	-16.15
953.893	-132.15
954.14	-83.15
954.387	-48.15
954.634	-53.15
954.881	-119.15
955.128	-74.15
955.375	-75.15
955.622	-58.15
955.869	-60.15
956.115	-76.15
956.362	-1.15
956.609	-29.15
956.856	-98.15
957.103	-112.15
957.35	4.85
957.597	-6.15
957.844	-92.15
958.091	-73.15
958.338	6.85
958.585	-45.15
958.831	-222.15
959.078	-148.15
959.325	22.85
959.572	-83.15
959.819	-162.15
960.066	-195.15
960.313	-56.15
960.559	-83.15
960.806	-215.15
961.053	-183.15
961.3	-4.15
961.547	35.85
961.794	-161.15
962.04	-6.15
962.287	16.85
962.534	-111.15
962.781	-121.15
963.028	-58.15
963.274	44.85
963.521	-44.15
963.768	-127.15
964.015	-79.15
964.262	86.85
964.508	-62.15
964.755	-156.15
965.002	-135.15
965.249	-88.15
965.495	-141.15
965.742	-170.15
965.989	-151.15
966.236	-27.15
966.482	-106.15
966.729	-154.15
966.976	-176.15
967.222	-98.15
967.469	-85.15
967.716	-141.15
967.963	-139.15
968.209	-72.15
968.456	-106.15
968.703	-212.15
968.949	-102.15
969.196	73.85
969.443	82.85
969.689	-155.15
969.936	-184.15
970.183	-73.15
970.429	-141.15
970.676	-175.15
970.923	-104.15
971.169	-33.15
971.416	-105.15
971.663	-149.15
971.909	-103.15
972.156	-34.15
972.402	-36.15
972.649	-104.15
972.896	-85.15
973.142	-70.15
973.389	-37.15
973.635	-128.15
973.882	-34.15
974.129	35.85
974.375	-63.15
974.622	-139.15
974.868	-137.15
975.115	-66.15
975.361	-109.15
975.608	-129.15
975.855	-12.15
976.101	4.85
976.348	-80.15
976.594	-143.15
976.841	-73.15
977.087	-53.15
977.334	-32.15
977.58	-179.15
977.827	-176.15
978.073	-20.15
978.32	-48.15
978.566	-170.15
978.813	-88.15
979.059	-62.15
979.306	-69.15
979.552	-174.15
979.799	-91.15
980.045	-84.15
980.292	-84.15
980.538	-152.15
980.785	-173.15
981.031	-132.15
981.278	-142.15
981.524	-184.15
981.771	-37.15
982.017	104.85
982.263	4.85
982.51	-144.15
982.756	-78.15
983.003	-19.15
983.249	-64.15
983.495	-149.15
983.742	-152.15
983.988	-75.15
984.235	-51.15
984.481	-155.15
984.727	-150.15
984.974	-21.15
985.22	-40.15
985.467	-123.15
985.713	-127.15
985.959	-5.15
986.206	-14.15
986.452	-111.15
986.698	-65.15
986.945	-42.15
987.191	-9.15
987.437	-13.15
987.684	-55.15
987.93	95.85
988.176	20.85
988.423	-178.15
988.669	-97.15
988.915	82.85
989.162	-73.15
989.408	-178.15
989.654	-105.15
989.901	-68.15
990.147	-79.15
990.393	-87.15
990.639	-33.15
990.886	-7.15
991.132	48.85
991.378	8.85
991.625	111.85
991.871	94.85
992.117	8.85
992.363	-42.15
992.61	-33.15
992.856	65.85
993.102	-71.15
993.348	-130.15
993.594	-97.15
993.841	-54.15
994.087	81.85
994.333	-60.15
994.579	-72.15
994.826	-24.15
995.072	-30.15
995.318	-221.15
995.564	-161.15
995.81	-34.15
996.057	-70.15
996.303	-176.15
996.549	-141.15
996.795	-63.15
997.041	-87.15
997.287	-120.15
997.534	-104.15
997.78	-56.15
998.026	-41.15
998.272	-169.15
998.518	-171.15
998.764	-16.15
999.01	2.85
999.256	-82.15
999.503	-126.15
999.749	-117.15
999.995	-157.15
1000.241	-172.15
1000.487	-94.15
1000.733	-44.15
1000.979	-88.15
1001.225	-125.15
1001.471	-57.15
1001.718	-6.15
1001.964	30.85
1002.21	-129.15
1002.456	-113.15
1002.702	38.85
1002.948	-53.15
1003.194	-141.15
1003.44	-161.15
1003.686	-69.15
1003.932	-117.15
1004.178	-169.15
1004.424	-95.15
1004.67	57.85
1004.916	37.85
1005.162	-81.15
1005.408	-144.15
1005.654	14.85
1005.9	-132.15
1006.146	-194.15
1006.392	-126.15
1006.638	-39.15
1006.884	-68.15
1007.13	-165.15
1007.376	-180.15
1007.622	-10.15
1007.868	-3.15
1008.114	-132.15
1008.36	-59.15
1008.606	-1.15
1008.852	12.85
1009.098	-65.15
1009.344	-20.15
1009.59	-51.15
1009.836	-187.15
1010.082	-240.15
1010.328	-124.15
1010.574	-41.15
1010.82	-131.15
1011.065	-205.15
1011.311	-187.15
1011.557	-76.15
1011.803	-117.15
1012.049	-169.15
1012.295	-120.15
1012.541	-79.15
1012.787	-74.15
1013.033	-201.15
1013.278	-234.15
1013.524	-70.15
1013.77	6.85
1014.016	-90.15
1014.262	-87.15
1014.508	24.85
1014.754	-150.15
1015	-166.15
1015.245	-11.15
1015.491	6.85
1015.737	-12.15
1015.983	-159.15
1016.229	-194.15
1016.475	-57.15
1016.72	57.85
1016.966	68.85
1017.212	-29.15
1017.458	46.85
1017.704	-42.15
1017.949	-178.15
1018.195	-13.15
1018.441	80.85
1018.687	29.85
1018.933	-109.15
1019.178	-122.15
1019.424	50.85
1019.67	85.85
1019.916	-145.15
1020.161	-96.15
1020.407	-26.15
1020.653	-89.15
1020.899	-154.15
1021.144	-95.15
1021.39	-18.15
1021.636	-108.15
1021.882	-196.15
1022.127	-88.15
1022.373	72.85
1022.619	4.85
1022.865	-95.15
1023.11	-94.15
1023.356	24.85
1023.602	-52.15
1023.847	-111.15
1024.093	-71.15
1024.339	-106.15
1024.584	-112.15
1024.83	-122.15
1025.076	-123.15
1025.321	4.85
1025.567	-16.15
1025.813	-122.15
1026.058	-41.15
1026.304	11.85
1026.55	-84.15
1026.795	-97.15
1027.041	-87.15
1027.287	-27.15
1027.532	-14.15
1027.778	-46.15
1028.024	-78.15
1028.269	-26.15
1028.515	-99.15
1028.76	-166.15
1029.006	-103.15
1029.252	-5.15
1029.497	-63.15
1029.743	-77.15
1029.989	-122.15
1030.234	5.85
1030.48	67.85
1030.725	-123.15
1030.971	-86.15
1031.216	61.85
1031.462	-31.15
1031.708	-178.15
1031.953	-144.15
1032.199	-68.15
1032.444	-29.15
1032.69	-64.15
1032.935	-79.15
1033.181	24.85
1033.426	-90.15
1033.672	-229.15
1033.918	-171.15
1034.163	-62.15
1034.409	-84.15
1034.654	-133.15
1034.9	-54.15
1035.145	15.85
1035.391	-47.15
1035.636	-174.15
1035.882	-75.15
1036.127	-82.15
1036.373	-138.15
1036.618	-222.15
1036.864	-110.15
1037.109	16.85
1037.355	-71.15
1037.6	-128.15
1037.845	-86.15
1038.091	91.85
1038.336	66.85
1038.582	66.85
1038.827	134.85
1039.073	-12.15
1039.318	-105.15
1039.564	-185.15
1039.809	-124.15
1040.055	63.85
1040.3	49.85
1040.545	-119.15
1040.791	-127.15
1041.036	-62.15
1041.282	-27.15
1041.527	14.85
1041.772	-151.15
1042.018	-85.15
1042.263	-38.15
1042.509	-188.15
1042.754	-158.15
1042.999	-33.15
1043.245	-52.15
1043.49	-209.15
1043.736	-139.15
1043.981	-55.15
1044.226	-40.15
1044.472	-44.15
1044.717	-51.15
1044.962	42.85
1045.208	-39.15
1045.453	-260.15
1045.698	-179.15
1045.944	15.85
1046.189	-29.15
1046.434	-111.15
1046.68	-106.15
1046.925	67.85
1047.17	-74.15
1047.416	-244.15
1047.661	-147.15
1047.906	-16.15
1048.152	-29.15
1048.397	-105.15
1048.642	-102.15
1048.887	79.85
1049.133	68.85
1049.378	-90.15
1049.623	-112.15
1049.869	12.85
1050.114	-67.15
1050.359	-136.15
1050.604	-55.15
1050.85	84.85
1051.095	-51.15
1051.34	-153.15
1051.585	-86.15
1051.831	106.85
1052.076	-40.15
1052.321	-241.15
1052.566	-135.15
1052.812	46.85
1053.057	-37.15
1053.302	-113.15
1053.547	-16.15
1053.792	37.85
1054.038	4.85
1054.283	-184.15
1054.528	-85.15
1054.773	-29.15
1055.018	-54.15
1055.264	-164.15
1055.509	-170.15
1055.754	-37.15
1055.999	-99.15
1056.244	-184.15
1056.49	-114.15
1056.735	-33.15
1056.98	-82.15
1057.225	-170.15
1057.47	6.85
1057.715	-66.15
1057.96	-148.15
1058.206	-175.15
1058.451	-56.15
1058.696	69.85
1058.941	2.85
1059.186	-168.15
1059.431	-144.15
1059.676	49.85
1059.922	8.85
1060.167	87.85
1060.412	251.85
1060.657	41.85
1060.902	-23.15
1061.147	-203.15
1061.392	-127.15
1061.637	14.85
1061.882	-62.15
1062.127	-217.15
1062.373	-194.15
1062.618	82.85
1062.863	95.85
1063.108	-97.15
1063.353	-151.15
1063.598	-53.15
1063.843	-90.15
1064.088	-162.15
1064.333	-167.15
1064.578	1.85
1064.823	21.85
1065.068	-225.15
1065.313	-149.15
1065.558	8.85
1065.803	9.85
1066.048	-194.15
1066.293	-161.15
1066.538	27.85
1066.783	-41.15
1067.028	-207.15
1067.273	-189.15
1067.518	4.85
1067.763	-61.15
1068.008	-217.15
1068.253	-153.15
1068.498	21.85
1068.743	-29.15
1068.988	-197.15
1069.233	-185.15
1069.478	27.85
1069.723	93.85
1069.968	-106.15
1070.213	-63.15
1070.458	36.85
1070.703	-48.15
1070.948	-238.15
1071.193	-111.15
1071.438	23.85
1071.683	36.85
1071.928	-91.15
1072.173	-101.15
1072.418	-25.15
1072.663	-60.15
1072.908	-191.15
1073.152	-128.15
1073.397	31.85
1073.642	-71.15
1073.887	-118.15
1074.132	2.85
1074.377	-16.15
1074.622	-39.15
1074.867	-168.15
1075.112	-93.15
1075.357	85.85
1075.601	-61.15
1075.846	-102.15
1076.091	-9.15
1076.336	46.85
1076.581	-97.15
1076.826	-199.15
1077.071	-118.15
1077.315	141.85
1077.56	77.85
1077.805	-145.15
1078.05	-108.15
1078.295	-55.15
1078.54	-79.15
1078.785	-201.15
1079.029	-138.15
1079.274	48.85
1079.519	-86.15
1079.764	-186.15
1080.009	-90.15
1080.253	14.85
1080.498	-80.15
1080.743	-245.15
1080.988	-87.15
1081.233	137.85
1081.478	72.85
1081.722	-150.15
1081.967	-34.15
1082.212	126.85
1082.457	20.85
1082.701	-129.15
1082.946	-92.15
1083.191	20.85
1083.436	-93.15
1083.681	-230.15
1083.925	-110.15
1084.17	-20.15
1084.415	9.85
1084.66	-196.15
1084.904	-97.15
1085.149	-12.15
1085.394	-49.15
1085.639	-227.15
1085.883	-118.15
1086.128	126.85
1086.373	139.85
1086.617	-86.15
1086.862	-152.15
1087.107	-38.15
1087.352	-87.15
1087.596	-168.15
1087.841	-34.15
1088.086	17.85
1088.33	-6.15
1088.575	-243.15
1088.82	-112.15
1089.064	50.85
1089.309	-91.15
1089.554	-205.15
1089.798	-162.15
1090.043	23.85
1090.288	-18.15
1090.533	-204.15
1090.777	-131.15
1091.022	0.85
1091.266	27.85
1091.511	-133.15
1091.756	-52.15
1092	111.85
1092.245	85.85
1092.49	-157.15
1092.734	-107.15
1092.979	84.85
1093.224	-32.15
1093.468	-190.15
1093.713	-138.15
1093.957	-3.15
1094.202	-59.15
1094.447	-229.15
1094.691	-103.15
1094.936	28.85
1095.181	-10.15
1095.425	-184.15
1095.67	-162.15
1095.914	12.85
1096.159	5.85
1096.403	-160.15
1096.648	-71.15
1096.893	48.85
1097.137	-97.15
1097.382	-232.15
1097.626	-159.15
1097.871	13.85
1098.115	-46.15
1098.36	-215.15
1098.605	-116.15
1098.849	-39.15
1099.094	-118.15
1099.338	-203.15
1099.583	-115.15
1099.827	119.85
1100.072	22.85
1100.316	-180.15
1100.561	-122.15
1100.805	38.85
1101.05	9.85
1101.294	-189.15
1101.539	-167.15
1101.783	-14.15
1102.028	-11.15
1102.273	-160.15
1102.517	-75.15
1102.761	52.85
1103.006	-68.15
1103.25	-269.15
1103.495	-180.15
1103.739	36.85
1103.984	104.85
1104.228	-103.15
1104.473	-32.15
1104.717	33.85
1104.962	0.85
1105.206	-118.15
1105.451	-153.15
1105.695	28.85
1105.94	-25.15
1106.184	-163.15
1106.429	-114.15
1106.673	4.85
1106.917	66.85
1107.162	-167.15
1107.406	-18.15
1107.651	117.85
1107.895	-93.15
1108.14	-191.15
1108.384	-97.15
1108.628	110.85
1108.873	106.85
1109.117	-144.15
1109.362	-128.15
1109.606	-29.15
1109.85	-44.15
1110.095	-180.15
1110.339	-112.15
1110.584	73.85
1110.828	41.85
1111.072	-81.15
1111.317	-125.15
1111.561	-22.15
1111.806	-29.15
1112.05	-168.15
1112.294	-86.15
1112.539	40.85
1112.783	17.85
1113.027	-100.15
1113.272	-106.15
1113.516	-29.15
1113.76	-43.15
1114.005	-145.15
1114.249	-88.15
1114.493	69.85
1114.738	92.85
1114.982	-37.15
1115.226	-72.15
1115.471	12.85
1115.715	-11.15
1115.959	-184.15
1116.204	-182.15
1116.448	-4.15
1116.692	-84.15
1116.937	-172.15
1117.181	-13.15
1117.425	-27.15
1117.67	-80.15
1117.914	-135.15
1118.158	-103.15
1118.402	137.85
1118.647	58.85
1118.891	-93.15
1119.135	-31.15
1119.38	102.85
1119.624	20.85
1119.868	-138.15
1120.112	-148.15
1120.357	-61.15
1120.601	-119.15
1120.845	-222.15
1121.089	-137.15
1121.334	22.85
