Data from HR4C21111__38__10-12-03-769.txt Node

Date: Mon Feb 22 10:12:03 IST 2021
User: Kapil
Spectrometer: HR4C2111
Trigger mode: 4
Integration Time (sec): 2.300000E0
Scans to average: 1
Electric dark correction enabled: true
Nonlinearity correction enabled: false
Boxcar width: 0
XAxis mode: Wavelengths
Number of Pixels in Spectrum: 3648
>>>>>Begin Spectral Data<<<<<
189.472	-444.46
189.745	-444.46
190.017	-444.46
190.289	-465.46
190.561	-299.46
190.834	-20.46
191.106	-125.46
191.378	16.54
191.65	20.54
191.923	-139.46
192.195	-96.46
192.467	126.54
192.739	104.54
193.011	-38.46
193.284	72.54
193.556	183.54
193.828	-7.46
194.1	-96.46
194.372	-107.46
194.644	59.54
194.916	78.54
195.188	-149.46
195.46	-78.46
195.732	45.54
196.004	-23.46
196.276	-107.46
196.548	-66.46
196.82	73.54
197.092	47.54
197.364	-120.46
197.636	-89.46
197.908	23.54
198.18	-48.46
198.452	-98.46
198.724	-54.46
198.996	54.54
199.268	78.54
199.54	-26.46
199.811	-112.46
200.083	86.54
200.355	31.54
200.627	-201.46
200.899	-76.46
201.171	36.54
201.442	-55.46
201.714	-179.46
201.986	-103.46
202.258	54.54
202.529	108.54
202.801	0.54
203.073	77.54
203.345	180.54
203.616	9.54
203.888	-148.46
204.16	-145.46
204.431	92.54
204.703	5.54
204.974	-146.46
205.246	-14.46
205.518	165.54
205.789	-7.46
206.061	-146.46
206.332	-117.46
206.604	9.54
206.876	103.54
207.147	145.54
207.419	17.54
207.69	127.54
207.962	-46.46
208.233	-190.46
208.505	-13.46
208.776	157.54
209.047	84.54
209.319	-123.46
209.59	-90.46
209.862	139.54
210.133	31.54
210.404	-142.46
210.676	-92.46
210.947	72.54
211.219	53.54
211.49	-129.46
211.761	-47.46
212.033	37.54
212.304	-34.46
212.575	-181.46
212.846	-86.46
213.118	28.54
213.389	-60.46
213.66	-117.46
213.931	-43.46
214.203	38.54
214.474	-34.46
214.745	-119.46
215.016	133.54
215.287	447.54
215.559	76.54
215.83	-112.46
216.101	-68.46
216.372	3.54
216.643	72.54
216.914	28.54
217.185	-86.46
217.456	145.54
217.727	13.54
217.998	-161.46
218.269	-66.46
218.54	30.54
218.811	-18.46
219.082	-103.46
219.353	-77.46
219.624	-28.46
219.895	-38.46
220.166	-135.46
220.437	-108.46
220.708	94.54
220.979	-15.46
221.25	-146.46
221.521	-86.46
221.792	29.54
222.063	92.54
222.334	52.54
222.604	173.54
222.875	158.54
223.146	83.54
223.417	-181.46
223.688	-33.46
223.958	138.54
224.229	-59.46
224.5	-191.46
224.771	-61.46
225.041	81.54
225.312	40.54
225.583	-112.46
225.854	-64.46
226.124	92.54
226.395	-0.46
226.666	-139.46
226.936	-107.46
227.207	52.54
227.478	-51.46
227.748	-98.46
228.019	38.54
228.289	257.54
228.56	-35.46
228.831	-38.46
229.101	77.54
229.372	62.54
229.642	-28.46
229.913	-170.46
230.183	-139.46
230.454	-10.46
230.724	-4.46
230.995	-95.46
231.265	-73.46
231.536	65.54
231.806	46.54
232.076	-114.46
232.347	-134.46
232.617	23.54
232.888	33.54
233.158	-63.46
233.428	-118.46
233.699	-18.46
233.969	-50.46
234.239	-169.46
234.51	-99.46
234.78	38.54
235.05	-28.46
235.321	-125.46
235.591	-79.46
235.861	46.54
236.131	-59.46
236.402	-185.46
236.672	-90.46
236.942	40.54
237.212	40.54
237.483	-72.46
237.753	-6.46
238.023	166.54
238.293	10.54
238.563	-82.46
238.833	-104.46
239.103	63.54
239.374	-26.46
239.644	-141.46
239.914	-37.46
240.184	132.54
240.454	-18.46
240.724	-169.46
240.994	-64.46
241.264	15.54
241.534	62.54
241.804	-8.46
242.074	-85.46
242.344	-40.46
242.614	-64.46
242.884	-182.46
243.154	-119.46
243.424	49.54
243.694	67.54
243.964	-91.46
244.234	-68.46
244.503	123.54
244.773	7.54
245.043	-225.46
245.313	-144.46
245.583	116.54
245.853	88.54
246.123	-172.46
246.392	-115.46
246.662	-9.46
246.932	-30.46
247.202	-178.46
247.471	-59.46
247.741	272.54
248.011	127.54
248.281	-143.46
248.55	-105.46
248.82	53.54
249.09	-10.46
249.359	-103.46
249.629	-88.46
249.899	40.54
250.168	55.54
250.438	-18.46
250.708	-113.46
250.977	77.54
251.247	52.54
251.516	-127.46
251.786	-52.46
252.055	125.54
252.325	4.54
252.595	-110.46
252.864	-62.46
253.134	49.54
253.403	-32.46
253.673	-171.46
253.942	-111.46
254.212	36.54
254.481	-12.46
254.75	-145.46
255.02	-88.46
255.289	83.54
255.559	-16.46
255.828	-118.46
256.097	-35.46
256.367	16.54
256.636	-85.46
256.906	-159.46
257.175	-31.46
257.444	230.54
257.714	32.54
257.983	-94.46
258.252	-42.46
258.521	-0.46
258.791	29.54
259.06	-106.46
259.329	-50.46
259.598	63.54
259.868	4.54
260.137	-123.46
260.406	-24.46
260.675	84.54
260.944	16.54
261.214	-146.46
261.483	-44.46
261.752	179.54
262.021	-0.46
262.29	-181.46
262.559	-124.46
262.828	9.54
263.097	-63.46
263.366	-222.46
263.635	-97.46
263.905	132.54
264.174	24.54
264.443	-202.46
264.712	-133.46
264.981	28.54
265.25	-38.46
265.519	-140.46
265.788	-157.46
266.057	20.54
266.325	50.54
266.594	-54.46
266.863	-112.46
267.132	17.54
267.401	13.54
267.67	-194.46
267.939	-150.46
268.208	20.54
268.477	63.54
268.745	-127.46
269.014	-94.46
269.283	127.54
269.552	40.54
269.821	-121.46
270.089	-22.46
270.358	-30.46
270.627	-31.46
270.896	-148.46
271.164	-172.46
271.433	9.54
271.702	93.54
271.971	-145.46
272.239	-152.46
272.508	23.54
272.777	-43.46
273.045	-30.46
273.314	-26.46
273.583	95.54
273.851	-15.46
274.12	-165.46
274.388	-151.46
274.657	-11.46
274.926	-1.46
275.194	-162.46
275.463	-59.46
275.731	29.54
276	156.54
276.268	346.54
276.537	-97.46
276.805	28.54
277.074	45.54
277.342	-156.46
277.611	-93.46
277.879	107.54
278.148	29.54
278.416	-154.46
278.684	-130.46
278.953	-23.46
279.221	-33.46
279.49	-196.46
279.758	-106.46
280.026	-14.46
280.295	3.54
280.563	-133.46
280.831	739.54
281.1	1859.54
281.368	175.54
281.636	-97.46
281.904	-126.46
282.173	-10.46
282.441	-64.46
282.709	-95.46
282.977	22.54
283.246	47.54
283.514	-39.46
283.782	-64.46
284.05	32.54
284.318	47.54
284.587	-39.46
284.855	-128.46
285.123	-76.46
285.391	56.54
285.659	38.54
285.927	-143.46
286.195	-67.46
286.463	48.54
286.732	-19.46
287	-148.46
287.268	-62.46
287.536	10.54
287.804	-56.46
288.072	-147.46
288.34	-93.46
288.608	61.54
288.876	-36.46
289.144	-132.46
289.412	-10.46
289.68	53.54
289.948	-21.46
290.215	-125.46
290.483	-119.46
290.751	89.54
291.019	91.54
291.287	-176.46
291.555	-127.46
291.823	20.54
292.091	-24.46
292.358	-88.46
292.626	-33.46
292.894	67.54
293.162	33.54
293.43	-125.46
293.697	-91.46
293.965	44.54
294.233	-40.46
294.501	-177.46
294.768	-71.46
295.036	77.54
295.304	25.54
295.572	-143.46
295.839	-109.46
296.107	103.54
296.375	-12.46
296.642	-151.46
296.91	-134.46
297.178	39.54
297.445	155.54
297.713	85.54
297.98	-95.46
298.248	-43.46
298.516	-63.46
298.783	-139.46
299.051	-125.46
299.318	12.54
299.586	-29.46
299.853	-109.46
300.121	-105.46
300.388	24.54
300.656	-16.46
300.923	-153.46
301.191	-63.46
301.458	37.54
301.726	-16.46
301.993	-157.46
302.26	-97.46
302.528	56.54
302.795	-19.46
303.063	-102.46
303.33	-67.46
303.597	14.54
303.865	11.54
304.132	-144.46
304.399	-146.46
304.667	-32.46
304.934	-4.46
305.201	-110.46
305.469	-27.46
305.736	54.54
306.003	36.54
306.27	-56.46
306.538	-111.46
306.805	-22.46
307.072	-41.46
307.339	-92.46
307.606	-60.46
307.874	160.54
308.141	68.54
308.408	-135.46
308.675	-123.46
308.942	-57.46
309.209	-81.46
309.477	-143.46
309.744	-114.46
310.011	5.54
310.278	28.54
310.545	-25.46
310.812	-54.46
311.079	132.54
311.346	197.54
311.613	53.54
311.88	-51.46
312.147	-87.46
312.414	-60.46
312.681	-116.46
312.948	-32.46
313.215	116.54
313.482	57.54
313.749	-118.46
314.016	-213.46
314.283	-72.46
314.55	42.54
314.817	-114.46
315.083	-131.46
315.35	-89.46
315.617	-153.46
315.884	-140.46
316.151	73.54
316.418	166.54
316.684	-22.46
316.951	-192.46
317.218	-115.46
317.485	-7.46
317.752	-60.46
318.018	-129.46
318.285	-17.46
318.552	9.54
318.819	-54.46
319.085	-137.46
319.352	-56.46
319.619	35.54
319.885	-38.46
320.152	-212.46
320.419	-118.46
320.685	22.54
320.952	-42.46
321.219	-72.46
321.485	70.54
321.752	3.54
322.019	-66.46
322.285	37.54
322.552	-11.46
322.818	127.54
323.085	-17.46
323.351	-135.46
323.618	-28.46
323.884	21.54
324.151	-70.46
324.417	-53.46
324.684	-94.46
324.95	-67.46
325.217	-158.46
325.483	-199.46
325.75	-46.46
326.016	-19.46
326.283	-41.46
326.549	-192.46
326.815	-86.46
327.082	76.54
327.348	-6.46
327.615	-132.46
327.881	-40.46
328.147	115.54
328.414	123.54
328.68	9.54
328.946	-45.46
329.212	10.54
329.479	-12.46
329.745	-132.46
330.011	-125.46
330.278	-2.46
330.544	-50.46
330.81	-40.46
331.076	-34.46
331.342	-29.46
331.609	-37.46
331.875	-95.46
332.141	-111.46
332.407	4.54
332.673	-6.46
332.94	-29.46
333.206	-70.46
333.472	17.54
333.738	45.54
334.004	-127.46
334.27	-27.46
334.536	9.54
334.802	-53.46
335.068	-120.46
335.334	-0.46
335.6	15.54
335.866	-47.46
336.132	-182.46
336.398	-108.46
336.664	-23.46
336.93	-52.46
337.196	-108.46
337.462	-13.46
337.728	22.54
337.994	-56.46
338.26	-102.46
338.526	-49.46
338.792	-81.46
339.058	-61.46
339.324	-151.46
339.59	-10.46
339.856	52.54
340.121	-67.46
340.387	-121.46
340.653	85.54
340.919	135.54
341.185	49.54
341.45	-81.46
341.716	18.54
341.982	100.54
342.248	-65.46
342.514	-100.46
342.779	-5.46
343.045	21.54
343.311	-22.46
343.576	-99.46
343.842	-42.46
344.108	129.54
344.374	25.54
344.639	-112.46
344.905	-87.46
345.171	53.54
345.436	-75.46
345.702	-108.46
345.967	31.54
346.233	71.54
346.499	5.54
346.764	-183.46
347.03	-79.46
347.295	-41.46
347.561	-34.46
347.826	-72.46
348.092	-141.46
348.357	-50.46
348.623	-56.46
348.888	-150.46
349.154	-118.46
349.419	4.54
349.685	-10.46
349.95	-82.46
350.216	-60.46
350.481	14.54
350.747	-83.46
351.012	-191.46
351.277	-126.46
351.543	8.54
351.808	-48.46
352.074	-204.46
352.339	-156.46
352.604	3.54
352.87	-18.46
353.135	-142.46
353.4	-91.46
353.666	-32.46
353.931	-46.46
354.196	-166.46
354.461	-151.46
354.727	-1.46
354.992	-33.46
355.257	-179.46
355.522	-79.46
355.788	-26.46
356.053	31.54
356.318	-118.46
356.583	-132.46
356.848	66.54
357.113	174.54
357.379	-87.46
357.644	-116.46
357.909	55.54
358.174	67.54
358.439	-180.46
358.704	-112.46
358.969	18.54
359.234	22.54
359.499	-150.46
359.765	-87.46
360.03	27.54
360.295	13.54
360.56	-149.46
360.825	-91.46
361.09	115.54
361.355	-62.46
361.62	-111.46
361.885	-73.46
362.15	-96.46
362.415	-71.46
362.679	-132.46
362.944	8.54
363.209	19.54
363.474	45.54
363.739	-26.46
364.004	-122.46
364.269	-56.46
364.534	-5.46
364.799	-75.46
365.063	-75.46
365.328	26.54
365.593	22.54
365.858	-99.46
366.123	-125.46
366.387	21.54
366.652	-64.46
366.917	-171.46
367.182	-123.46
367.447	41.54
367.711	-3.46
367.976	-95.46
368.241	-21.46
368.505	30.54
368.77	-75.46
369.035	-81.46
369.299	-22.46
369.564	-16.46
369.829	-85.46
370.093	-117.46
370.358	-129.46
370.623	-8.46
370.887	-0.46
371.152	-156.46
371.416	-77.46
371.681	-41.46
371.946	-135.46
372.21	-163.46
372.475	-34.46
372.739	-0.46
373.004	-60.46
373.268	-111.46
373.533	-55.46
373.797	5.54
374.062	-14.46
374.326	-186.46
374.591	-86.46
374.855	8.54
375.12	-59.46
375.384	-245.46
375.648	-154.46
375.913	-19.46
376.177	1.54
376.442	-125.46
376.706	-111.46
376.97	3.54
377.235	-33.46
377.499	-86.46
377.763	-85.46
378.028	-97.46
378.292	-35.46
378.556	-127.46
378.821	-192.46
379.085	-110.46
379.349	-176.46
379.614	-240.46
379.878	-115.46
380.142	55.54
380.406	-42.46
380.671	-46.46
380.935	85.54
381.199	171.54
381.463	31.54
381.727	-17.46
381.991	-61.46
382.256	7.54
382.52	-43.46
382.784	-31.46
383.048	80.54
383.312	-0.46
383.576	-47.46
383.84	-165.46
384.104	-106.46
384.369	-21.46
384.633	-123.46
384.897	-231.46
385.161	-100.46
385.425	9.54
385.689	-71.46
385.953	-124.46
386.217	-150.46
386.481	-48.46
386.745	-40.46
387.009	-81.46
387.273	-127.46
387.537	-85.46
387.801	-48.46
388.064	-118.46
388.328	-56.46
388.592	-6.46
388.856	-71.46
389.12	-126.46
389.384	-66.46
389.648	-30.46
389.912	30.54
390.176	28.54
390.439	107.54
390.703	-56.46
390.967	-87.46
391.231	-174.46
391.495	-117.46
391.758	-51.46
392.022	-50.46
392.286	-175.46
392.55	-142.46
392.813	-31.46
393.077	14.54
393.341	-64.46
393.605	-4.46
393.868	-63.46
394.132	-67.46
394.396	-77.46
394.659	19.54
394.923	-30.46
395.187	-96.46
395.45	-114.46
395.714	-68.46
395.978	-38.46
396.241	-14.46
396.505	-115.46
396.768	-62.46
397.032	-7.46
397.295	-6.46
397.559	-91.46
397.823	-125.46
398.086	13.54
398.35	-58.46
398.613	-171.46
398.877	-17.46
399.14	92.54
399.404	87.54
399.667	-15.46
399.931	-95.46
400.194	-19.46
400.457	-38.46
400.721	-80.46
400.984	21.54
401.248	-40.46
401.511	-81.46
401.775	-181.46
402.038	-127.46
402.301	90.54
402.565	28.54
402.828	-198.46
403.091	-127.46
403.355	-19.46
403.618	-6.46
403.881	-10.46
404.145	-55.46
404.408	13.54
404.671	-39.46
404.934	-37.46
405.198	8.54
405.461	9.54
405.724	23.54
405.987	-11.46
406.251	25.54
406.514	103.54
406.777	-38.46
407.04	-131.46
407.303	-129.46
407.567	18.54
407.83	75.54
408.093	-128.46
408.356	-31.46
408.619	33.54
408.882	85.54
409.145	-33.46
409.408	-66.46
409.672	29.54
409.935	-42.46
410.198	-156.46
410.461	-63.46
410.724	83.54
410.987	-13.46
411.25	-152.46
411.513	-35.46
411.776	34.54
412.039	-86.46
412.302	-128.46
412.565	-116.46
412.828	-55.46
413.091	-60.46
413.354	-133.46
413.617	-116.46
413.879	-45.46
414.142	-28.46
414.405	-171.46
414.668	-88.46
414.931	38.54
415.194	9.54
415.457	-146.46
415.72	-72.46
415.983	-20.46
416.245	-26.46
416.508	-123.46
416.771	-150.46
417.034	11.54
417.297	9.54
417.559	-51.46
417.822	-81.46
418.085	10.54
418.348	4.54
418.61	-152.46
418.873	-132.46
419.136	-98.46
419.399	-110.46
419.661	-71.46
419.924	-100.46
420.187	-31.46
420.449	-50.46
420.712	-106.46
420.975	-143.46
421.237	-40.46
421.5	-43.46
421.762	-3.46
422.025	41.54
422.288	72.54
422.55	-125.46
422.813	-190.46
423.075	-106.46
423.338	-31.46
423.601	-4.46
423.863	-64.46
424.126	-51.46
424.388	52.54
424.651	-10.46
424.913	-82.46
425.176	-89.46
425.438	-52.46
425.701	35.54
425.963	-115.46
426.225	-160.46
426.488	-65.46
426.75	-78.46
427.013	-150.46
427.275	-100.46
427.538	-53.46
427.8	-79.46
428.062	-158.46
428.325	-73.46
428.587	18.54
428.849	-30.46
429.112	-99.46
429.374	-129.46
429.636	-61.46
429.899	12.54
430.161	-106.46
430.423	-68.46
430.686	21.54
430.948	-4.46
431.21	-132.46
431.472	-133.46
431.735	-68.46
431.997	-89.46
432.259	-53.46
432.521	-113.46
432.783	-27.46
433.046	-46.46
433.308	-154.46
433.57	-95.46
433.832	123.54
434.094	-63.46
434.356	-192.46
434.618	-106.46
434.881	-29.46
435.143	-78.46
435.405	-52.46
435.667	-35.46
435.929	-25.46
436.191	-71.46
436.453	-149.46
436.715	-66.46
436.977	0.54
437.239	-38.46
437.501	-162.46
437.763	-138.46
438.025	-2.46
438.287	-32.46
438.549	-118.46
438.811	-82.46
439.073	-45.46
439.335	-99.46
439.597	-113.46
439.859	-41.46
440.121	52.54
440.383	-113.46
440.645	-132.46
440.907	-63.46
441.168	-21.46
441.43	-69.46
441.692	-171.46
441.954	-120.46
442.216	-50.46
442.478	-76.46
442.74	-181.46
443.001	-76.46
443.263	76.54
443.525	11.54
443.787	-118.46
444.048	-97.46
444.31	-60.46
444.572	-86.46
444.834	-107.46
445.095	-103.46
445.357	20.54
445.619	-30.46
445.881	-228.46
446.142	-138.46
446.404	-59.46
446.666	-51.46
446.927	-125.46
447.189	-5.46
447.451	26.54
447.712	-35.46
447.974	-219.46
448.235	-174.46
448.497	-42.46
448.759	-128.46
449.02	-182.46
449.282	-194.46
449.543	-23.46
449.805	41.54
450.066	-197.46
450.328	-85.46
450.59	114.54
450.851	-19.46
451.113	-60.46
451.374	-133.46
451.636	1.54
451.897	21.54
452.158	-63.46
452.42	32.54
452.681	68.54
452.943	-114.46
453.204	-192.46
453.466	-177.46
453.727	-98.46
453.988	-62.46
454.25	-168.46
454.511	-195.46
454.773	-60.46
455.034	82.54
455.295	-133.46
455.557	-159.46
455.818	-53.46
456.079	-43.46
456.341	47.54
456.602	28.54
456.863	16.54
457.124	-53.46
457.386	-157.46
457.647	-156.46
457.908	-79.46
458.169	28.54
458.431	-159.46
458.692	-171.46
458.953	-62.46
459.214	-98.46
459.476	-106.46
459.737	-27.46
459.998	18.54
460.259	-68.46
460.52	-170.46
460.781	-110.46
461.043	40.54
461.304	-94.46
461.565	-195.46
461.826	-157.46
462.087	-54.46
462.348	-22.46
462.609	-129.46
462.87	-56.46
463.131	-85.46
463.392	-14.46
463.653	-88.46
463.914	-52.46
464.175	-30.46
464.436	-89.46
464.697	-164.46
464.958	-129.46
465.219	-40.46
465.48	-63.46
465.741	-84.46
466.002	-132.46
466.263	-65.46
466.524	-63.46
466.785	-153.46
467.046	-127.46
467.307	-38.46
467.568	-100.46
467.829	-100.46
468.089	-60.46
468.35	-27.46
468.611	-91.46
468.872	-174.46
469.133	-45.46
469.394	35.54
469.655	70.54
469.915	-107.46
470.176	-177.46
470.437	-120.46
470.698	-52.46
470.958	-120.46
471.219	-178.46
471.48	-102.46
471.741	-107.46
472.001	-163.46
472.262	-106.46
472.523	9.54
472.784	45.54
473.044	-117.46
473.305	-85.46
473.566	28.54
473.826	0.54
474.087	-119.46
474.348	-103.46
474.608	-38.46
474.869	5.54
475.129	-115.46
475.39	-134.46
475.651	-47.46
475.911	-13.46
476.172	-176.46
476.432	-62.46
476.693	73.54
476.953	-6.46
477.214	-26.46
477.475	-16.46
477.735	-14.46
477.996	5.54
478.256	-181.46
478.517	-158.46
478.777	-54.46
479.038	23.54
479.298	-10.46
479.558	-101.46
479.819	47.54
480.079	56.54
480.34	-35.46
480.6	-115.46
480.861	-22.46
481.121	-43.46
481.381	-130.46
481.642	-67.46
481.902	-71.46
482.162	-121.46
482.423	-99.46
482.683	-18.46
482.943	10.54
483.204	-85.46
483.464	-118.46
483.724	-85.46
483.985	-38.46
484.245	2.54
484.505	-80.46
484.765	-18.46
485.026	73.54
485.286	56.54
485.546	-37.46
485.806	5.54
486.067	21.54
486.327	-107.46
486.587	-166.46
486.847	-152.46
487.107	-43.46
487.368	-18.46
487.628	-77.46
487.888	-80.46
488.148	9.54
488.408	-90.46
488.668	-69.46
488.928	-18.46
489.188	-10.46
489.449	68.54
489.709	-95.46
489.969	-110.46
490.229	-15.46
490.489	-48.46
490.749	-116.46
491.009	-176.46
491.269	-92.46
491.529	-85.46
491.789	-164.46
492.049	-74.46
492.309	56.54
492.569	-73.46
492.829	-105.46
493.089	-112.46
493.349	43.54
493.609	-48.46
493.869	-132.46
494.129	-57.46
494.389	47.54
494.648	-74.46
494.908	-172.46
495.168	-87.46
495.428	46.54
495.688	-34.46
495.948	-208.46
496.208	-178.46
496.467	-114.46
496.727	-72.46
496.987	-85.46
497.247	-91.46
497.507	3.54
497.767	36.54
498.026	-149.46
498.286	-53.46
498.546	140.54
498.806	1.54
499.065	45.54
499.325	-17.46
499.585	-30.46
499.845	-54.46
500.104	-45.46
500.364	64.54
500.624	7.54
500.883	-71.46
501.143	-62.46
501.403	6.54
501.662	110.54
501.922	2.54
502.182	-142.46
502.441	-147.46
502.701	-63.46
502.96	37.54
503.22	-47.46
503.48	-82.46
503.739	-9.46
503.999	-61.46
504.258	-146.46
504.518	-80.46
504.777	31.54
505.037	-33.46
505.296	-84.46
505.556	-85.46
505.815	46.54
506.075	109.54
506.334	1.54
506.594	-157.46
506.853	-87.46
507.113	-73.46
507.372	-213.46
507.632	-144.46
507.891	-40.46
508.151	-1.46
508.41	-167.46
508.669	-116.46
508.929	32.54
509.188	-24.46
509.447	-84.46
509.707	-120.46
509.966	-34.46
510.226	-24.46
510.485	-75.46
510.744	-62.46
511.004	1.54
511.263	-77.46
511.522	-147.46
511.781	-112.46
512.041	20.54
512.3	-43.46
512.559	-28.46
512.818	15.54
513.078	9.54
513.337	-16.46
513.596	-86.46
513.855	-100.46
514.115	24.54
514.374	-31.46
514.633	-151.46
514.892	-163.46
515.151	-9.46
515.41	29.54
515.67	-83.46
515.929	-121.46
516.188	-18.46
516.447	-50.46
516.706	-132.46
516.965	-92.46
517.224	-60.46
517.483	-64.46
517.743	-102.46
518.002	-55.46
518.261	32.54
518.52	-26.46
518.779	-137.46
519.038	-111.46
519.297	-58.46
519.556	-82.46
519.815	-165.46
520.074	-159.46
520.333	-49.46
520.592	-65.46
520.851	-158.46
521.11	-28.46
521.369	113.54
521.628	-65.46
521.887	-143.46
522.145	-94.46
522.404	-44.46
522.663	-51.46
522.922	-191.46
523.181	-167.46
523.44	-31.46
523.699	-12.46
523.958	-165.46
524.217	-133.46
524.475	-103.46
524.734	-143.46
524.993	-154.46
525.252	-85.46
525.511	-29.46
525.769	-80.46
526.028	-156.46
526.287	-97.46
526.546	-39.46
526.805	-70.46
527.063	-147.46
527.322	-168.46
527.581	-75.46
527.839	-59.46
528.098	-50.46
528.357	-38.46
528.616	-51.46
528.874	-54.46
529.133	-112.46
529.392	-69.46
529.65	-27.46
529.909	-52.46
530.168	-152.46
530.426	-129.46
530.685	12.54
530.943	-29.46
531.202	-152.46
531.461	-141.46
531.719	15.54
531.978	-45.46
532.236	-133.46
532.495	-55.46
532.753	6.54
533.012	-85.46
533.271	-172.46
533.529	-158.46
533.788	-82.46
534.046	-153.46
534.305	-179.46
534.563	31.54
534.822	104.54
535.08	-9.46
535.338	-119.46
535.597	-81.46
535.855	-8.46
536.114	-57.46
536.372	-153.46
536.631	-86.46
536.889	28.54
537.147	-28.46
537.406	-210.46
537.664	-85.46
537.923	-39.46
538.181	-21.46
538.439	-164.46
538.698	-36.46
538.956	-28.46
539.214	-65.46
539.473	-122.46
539.731	-60.46
539.989	5.54
540.248	-67.46
540.506	-128.46
540.764	-122.46
541.022	-7.46
541.281	23.54
541.539	-90.46
541.797	-150.46
542.055	-8.46
542.314	72.54
542.572	13.54
542.83	-131.46
543.088	-11.46
543.346	-68.46
543.604	-163.46
543.863	-84.46
544.121	66.54
544.379	-19.46
544.637	-153.46
544.895	-15.46
545.153	84.54
545.411	-49.46
545.67	-211.46
545.928	-173.46
546.186	-33.46
546.444	26.54
546.702	-67.46
546.96	-33.46
547.218	19.54
547.476	-56.46
547.734	-143.46
547.992	-70.46
548.25	22.54
548.508	-66.46
548.766	-108.46
549.024	-90.46
549.282	-66.46
549.54	-63.46
549.798	-88.46
550.056	-82.46
550.314	17.54
550.572	-41.46
550.83	-181.46
551.088	-68.46
551.346	47.54
551.603	22.54
551.861	-137.46
552.119	-36.46
552.377	52.54
552.635	-63.46
552.893	-174.46
553.151	-163.46
553.409	-37.46
553.666	-15.46
553.924	-129.46
554.182	-142.46
554.44	13.54
554.698	74.54
554.955	-87.46
555.213	-91.46
555.471	22.54
555.729	-30.46
555.986	-217.46
556.244	-97.46
556.502	96.54
556.76	-35.46
557.017	-102.46
557.275	-51.46
557.533	80.54
557.79	45.54
558.048	-155.46
558.306	-70.46
558.563	13.54
558.821	-98.46
559.079	-136.46
559.336	-92.46
559.594	-41.46
559.852	-118.46
560.109	-162.46
560.367	-51.46
560.624	1.54
560.882	-52.46
561.14	-84.46
561.397	25.54
561.655	-54.46
561.912	-29.46
562.17	-146.46
562.427	-78.46
562.685	-13.46
562.942	-6.46
563.2	-135.46
563.457	-50.46
563.715	-11.46
563.972	7.54
564.23	-163.46
564.487	-177.46
564.745	-28.46
565.002	22.54
565.26	-75.46
565.517	-73.46
565.774	-10.46
566.032	-3.46
566.289	-54.46
566.547	-32.46
566.804	89.54
567.061	50.54
567.319	-59.46
567.576	52.54
567.833	199.54
568.091	250.54
568.348	85.54
568.605	128.54
568.863	184.54
569.12	182.54
569.377	127.54
569.635	159.54
569.892	231.54
570.149	240.54
570.406	184.54
570.664	284.54
570.921	454.54
571.178	427.54
571.435	518.54
571.693	571.54
571.95	696.54
572.207	709.54
572.464	765.54
572.721	950.54
572.979	1115.54
573.236	1120.54
573.493	1118.54
573.75	1254.54
574.007	1469.54
574.264	1493.54
574.521	1546.54
574.779	1676.54
575.036	1889.54
575.293	2003.54
575.55	2073.54
575.807	2164.54
576.064	2390.54
576.321	2517.54
576.578	2510.54
576.835	2709.54
577.092	3082.54
577.349	3115.54
577.606	3033.54
577.863	3225.54
578.12	3504.54
578.377	3659.54
578.634	3579.54
578.891	3788.54
579.148	4012.54
579.405	4071.54
579.662	4117.54
579.919	4331.54
580.176	4436.54
580.433	4584.54
580.69	4603.54
580.947	4726.54
581.204	4950.54
581.461	4981.54
581.717	4951.54
581.974	5196.54
582.231	5298.54
582.488	5306.54
582.745	5249.54
583.002	5353.54
583.259	5611.54
583.515	5602.54
583.772	5497.54
584.029	5572.54
584.286	5813.54
584.543	5640.54
584.799	5690.54
585.056	5848.54
585.313	5994.54
585.57	6027.54
585.826	5921.54
586.083	6018.54
586.34	6225.54
586.597	6017.54
586.853	5944.54
587.11	5937.54
587.367	6139.54
587.623	6208.54
587.88	6150.54
588.137	6037.54
588.393	6151.54
588.65	6107.54
588.907	6003.54
589.163	6124.54
589.42	6173.54
589.677	6147.54
589.933	6024.54
590.19	6165.54
590.446	6326.54
590.703	6317.54
590.96	6083.54
591.216	6042.54
591.473	6162.54
591.729	6158.54
591.986	6174.54
592.242	6268.54
592.499	6406.54
592.755	6188.54
593.012	6054.54
593.268	6150.54
593.525	6208.54
593.781	6229.54
594.038	6084.54
594.294	6149.54
594.551	6195.54
594.807	6154.54
595.064	6144.54
595.32	6114.54
595.576	6202.54
595.833	6291.54
596.089	6144.54
596.346	6265.54
596.602	6307.54
596.858	6297.54
597.115	6124.54
597.371	6180.54
597.628	6176.54
597.884	6151.54
598.14	6069.54
598.397	6203.54
598.653	6297.54
598.909	6175.54
599.166	6056.54
599.422	6159.54
599.678	6217.54
599.934	6169.54
600.191	6049.54
600.447	6093.54
600.703	6168.54
600.959	6117.54
601.216	5960.54
601.472	6024.54
601.728	6172.54
601.984	6057.54
602.241	5971.54
602.497	6046.54
602.753	6236.54
603.009	6147.54
603.265	6043.54
603.521	6143.54
603.778	6208.54
604.034	6050.54
604.29	6030.54
604.546	6111.54
604.802	6171.54
605.058	6085.54
605.314	5993.54
605.571	6050.54
605.827	6087.54
606.083	6073.54
606.339	5988.54
606.595	6140.54
606.851	6261.54
607.107	6199.54
607.363	5977.54
607.619	6042.54
607.875	6236.54
608.131	6152.54
608.387	5895.54
608.643	5966.54
608.899	6101.54
609.155	6095.54
609.411	6027.54
609.667	6023.54
609.923	6008.54
610.179	6009.54
610.435	5862.54
610.691	5887.54
610.947	6074.54
611.203	6013.54
611.459	5871.54
611.714	5964.54
611.97	6110.54
612.226	6014.54
612.482	5817.54
612.738	5964.54
612.994	6189.54
613.25	5976.54
613.505	5810.54
613.761	5831.54
614.017	5895.54
614.273	5909.54
614.529	5799.54
614.785	5792.54
615.04	5873.54
615.296	5877.54
615.552	5869.54
615.808	5845.54
616.063	5913.54
616.319	5898.54
616.575	5763.54
616.831	5797.54
617.086	6000.54
617.342	5907.54
617.598	5762.54
617.854	5852.54
618.109	5925.54
618.365	5750.54
618.621	5660.54
618.876	5711.54
619.132	5863.54
619.388	5785.54
619.643	5530.54
619.899	5684.54
620.155	5732.54
620.41	5703.54
620.666	5551.54
620.921	5606.54
621.177	5750.54
621.433	5775.54
621.688	5643.54
621.944	5573.54
622.199	5610.54
622.455	5580.54
622.71	5423.54
622.966	5457.54
623.221	5507.54
623.477	5515.54
623.732	5516.54
623.988	5425.54
624.243	5559.54
624.499	5530.54
624.754	5308.54
625.01	5381.54
625.265	5493.54
625.521	5514.54
625.776	5349.54
626.032	5334.54
626.287	5344.54
626.543	5341.54
626.798	5268.54
627.053	5294.54
627.309	5318.54
627.564	5232.54
627.82	5202.54
628.075	5244.54
628.33	5205.54
628.586	5113.54
628.841	5022.54
629.096	5161.54
629.352	5198.54
629.607	5085.54
629.862	5012.54
630.118	5110.54
630.373	5057.54
630.628	5049.54
630.884	4938.54
631.139	4992.54
631.394	5085.54
631.649	5038.54
631.905	4871.54
632.16	4953.54
632.415	5163.54
632.67	5004.54
632.926	4832.54
633.181	4834.54
633.436	4955.54
633.691	4874.54
633.946	4715.54
634.202	4742.54
634.457	4884.54
634.712	4809.54
634.967	4707.54
635.222	4666.54
635.477	4737.54
635.733	4693.54
635.988	4635.54
636.243	4638.54
636.498	4764.54
636.753	4713.54
637.008	4518.54
637.263	4621.54
637.518	4644.54
637.773	4599.54
638.028	4568.54
638.283	4553.54
638.539	4630.54
638.794	4584.54
639.049	4432.54
639.304	4441.54
639.559	4485.54
639.814	4465.54
640.069	4425.54
640.324	4404.54
640.579	4476.54
640.834	4473.54
641.089	4320.54
641.344	4377.54
641.598	4589.54
641.853	4442.54
642.108	4257.54
642.363	4232.54
642.618	4374.54
642.873	4311.54
643.128	4167.54
643.383	4200.54
643.638	4254.54
643.893	4322.54
644.148	4246.54
644.402	4165.54
644.657	4246.54
644.912	4199.54
645.167	4149.54
645.422	4184.54
645.677	4141.54
645.931	4213.54
646.186	4224.54
646.441	4089.54
646.696	4062.54
646.951	4124.54
647.205	4081.54
647.46	4033.54
647.715	4024.54
647.97	4199.54
648.224	4291.54
648.479	4123.54
648.734	4196.54
648.989	4110.54
649.243	4023.54
649.498	3981.54
649.753	3946.54
650.007	4026.54
650.262	3960.54
650.517	3924.54
650.771	3991.54
651.026	3925.54
651.281	3847.54
651.535	3941.54
651.79	3941.54
652.045	3951.54
652.299	3843.54
652.554	3852.54
652.809	3928.54
653.063	4069.54
653.318	3966.54
653.572	3778.54
653.827	3919.54
654.081	3886.54
654.336	3771.54
654.591	3766.54
654.845	3868.54
655.1	3777.54
655.354	3746.54
655.609	3804.54
655.863	3907.54
656.118	3904.54
656.372	3726.54
656.627	3787.54
656.881	3895.54
657.136	3767.54
657.39	3657.54
657.645	3789.54
657.899	3944.54
658.153	3821.54
658.408	3723.54
658.662	3762.54
658.917	3802.54
659.171	3676.54
659.426	3612.54
659.68	3675.54
659.934	3789.54
660.189	3736.54
660.443	3624.54
660.697	3779.54
660.952	3844.54
661.206	3703.54
661.46	3555.54
661.715	3663.54
661.969	3779.54
662.223	3741.54
662.478	3591.54
662.732	3661.54
662.986	3727.54
663.241	3747.54
663.495	3637.54
663.749	3684.54
664.003	3826.54
664.258	3733.54
664.512	3641.54
664.766	3679.54
665.02	3775.54
665.275	3774.54
665.529	3595.54
665.783	3630.54
666.037	3709.54
666.291	3697.54
666.546	3600.54
666.8	3659.54
667.054	3641.54
667.308	3693.54
667.562	3543.54
667.816	3612.54
668.071	3775.54
668.325	3649.54
668.579	3664.54
668.833	3711.54
669.087	3861.54
669.341	3797.54
669.595	3662.54
669.849	3722.54
670.103	3761.54
670.357	3745.54
670.612	3707.54
670.866	3657.54
671.12	3798.54
671.374	3805.54
671.628	3770.54
671.882	3726.54
672.136	3803.54
672.39	3775.54
672.644	3615.54
672.898	3785.54
673.152	3921.54
673.406	3843.54
673.66	3774.54
673.914	3812.54
674.168	3878.54
674.422	3838.54
674.675	3735.54
674.929	3778.54
675.183	3911.54
675.437	3907.54
675.691	3821.54
675.945	3884.54
676.199	4012.54
676.453	3866.54
676.707	3720.54
676.961	3744.54
677.214	3861.54
677.468	3878.54
677.722	3832.54
677.976	3843.54
678.23	3922.54
678.484	3949.54
678.737	3841.54
678.991	3872.54
679.245	3944.54
679.499	3901.54
679.753	3815.54
680.006	3909.54
680.26	4033.54
680.514	4030.54
680.768	3876.54
681.021	3957.54
681.275	4007.54
681.529	3968.54
681.783	3902.54
682.036	3975.54
682.29	3971.54
682.544	3979.54
682.797	3925.54
683.051	3952.54
683.305	4033.54
683.559	4027.54
683.812	4025.54
684.066	4036.54
684.32	4099.54
684.573	4091.54
684.827	4041.54
685.08	4026.54
685.334	4165.54
685.588	4092.54
685.841	3991.54
686.095	4114.54
686.348	4123.54
686.602	4078.54
686.856	4039.54
687.109	4035.54
687.363	4091.54
687.616	4061.54
687.87	3925.54
688.123	3975.54
688.377	4065.54
688.63	4126.54
688.884	4150.54
689.137	4244.54
689.391	4221.54
689.644	4069.54
689.898	4006.54
690.151	4041.54
690.405	4138.54
690.658	4116.54
690.912	4096.54
691.165	4086.54
691.419	4135.54
691.672	4191.54
691.926	4120.54
692.179	4138.54
692.432	4214.54
692.686	4159.54
692.939	4029.54
693.193	4078.54
693.446	4262.54
693.699	4223.54
693.953	4194.54
694.206	4170.54
694.459	4295.54
694.713	4309.54
694.966	4131.54
695.219	4094.54
695.473	4209.54
695.726	4106.54
695.979	4067.54
696.233	4164.54
696.486	4237.54
696.739	4225.54
696.992	4078.54
697.246	4155.54
697.499	4289.54
697.752	4133.54
698.006	4077.54
698.259	4183.54
698.512	4165.54
698.765	4123.54
699.018	4099.54
699.272	4150.54
699.525	4190.54
699.778	4112.54
700.031	4043.54
700.284	4072.54
700.538	4195.54
700.791	4177.54
701.044	4101.54
701.297	4125.54
701.55	4152.54
701.803	4120.54
702.056	4059.54
702.31	4092.54
702.563	4207.54
702.816	4100.54
703.069	3956.54
703.322	4037.54
703.575	4159.54
703.828	4166.54
704.081	4089.54
704.334	4118.54
704.587	4154.54
704.84	4061.54
705.093	4043.54
705.346	4143.54
705.599	4099.54
705.853	4088.54
706.106	4176.54
706.359	4446.54
706.612	4114.54
706.865	4132.54
707.118	3998.54
707.37	4050.54
707.623	4159.54
707.876	4101.54
708.129	4043.54
708.382	4143.54
708.635	4192.54
708.888	4064.54
709.141	3924.54
709.394	4018.54
709.647	4132.54
709.9	4013.54
710.153	3921.54
710.406	4021.54
710.658	4093.54
710.911	4033.54
711.164	3872.54
711.417	3897.54
711.67	3943.54
711.923	4038.54
712.176	3907.54
712.428	3915.54
712.681	3963.54
712.934	3964.54
713.187	3909.54
713.44	3904.54
713.692	4010.54
713.945	3903.54
714.198	3811.54
714.451	3791.54
714.704	3919.54
714.956	3949.54
715.209	3981.54
715.462	3888.54
715.715	3885.54
715.967	3830.54
716.22	3688.54
716.473	3737.54
716.725	3877.54
716.978	3797.54
717.231	3801.54
717.484	3875.54
717.736	3775.54
717.989	3672.54
718.242	3649.54
718.494	3739.54
718.747	3831.54
718.999	3779.54
719.252	3797.54
719.505	3761.54
719.757	3723.54
720.01	3712.54
720.263	3662.54
720.515	3651.54
720.768	3759.54
721.02	3746.54
721.273	3564.54
721.525	3541.54
721.778	3669.54
722.031	3740.54
722.283	3582.54
722.536	3539.54
722.788	3653.54
723.041	3614.54
723.293	3496.54
723.546	3496.54
723.798	3604.54
724.051	3638.54
724.303	3585.54
724.556	3636.54
724.808	3691.54
725.061	3617.54
725.313	3510.54
725.566	3508.54
725.818	3514.54
726.071	3512.54
726.323	3393.54
726.575	3410.54
726.828	3522.54
727.08	3557.54
727.333	3381.54
727.585	3366.54
727.837	3437.54
728.09	3458.54
728.342	3292.54
728.595	3393.54
728.847	3562.54
729.099	3281.54
729.352	3280.54
729.604	3305.54
729.856	3412.54
730.109	3382.54
730.361	3270.54
730.613	3356.54
730.866	3463.54
731.118	3301.54
731.37	3196.54
731.622	3228.54
731.875	3316.54
732.127	3331.54
732.379	3300.54
732.631	3351.54
732.884	3382.54
733.136	3270.54
733.388	3149.54
733.64	3187.54
733.893	3339.54
734.145	3253.54
734.397	3061.54
734.649	3060.54
734.901	3161.54
735.154	3101.54
735.406	3012.54
735.658	3105.54
735.91	3231.54
736.162	3164.54
736.414	3020.54
736.667	3131.54
736.919	3145.54
737.171	2987.54
737.423	2965.54
737.675	3053.54
737.927	3143.54
738.179	3062.54
738.431	2997.54
738.684	2949.54
738.936	3033.54
739.188	3098.54
739.44	2895.54
739.692	2900.54
739.944	2937.54
740.196	2950.54
740.448	2879.54
740.7	2879.54
740.952	2950.54
741.204	2945.54
741.456	2848.54
741.708	2889.54
741.96	2929.54
742.212	2965.54
742.464	2936.54
742.716	2825.54
742.968	2864.54
743.22	2837.54
743.472	2764.54
743.724	2844.54
743.976	2986.54
744.228	2980.54
744.48	2734.54
744.732	2736.54
744.983	2869.54
745.235	2844.54
745.487	2776.54
745.739	2796.54
745.991	2787.54
746.243	2843.54
746.495	2682.54
746.747	2704.54
746.999	2840.54
747.25	2807.54
747.502	2758.54
747.754	2848.54
748.006	2789.54
748.258	2919.54
748.51	2928.54
748.761	2730.54
749.013	2783.54
749.265	2853.54
749.517	2804.54
749.768	2852.54
750.02	2888.54
750.272	2824.54
750.524	2631.54
750.776	2592.54
751.027	2802.54
751.279	2829.54
751.531	2639.54
751.782	2709.54
752.034	2766.54
752.286	2623.54
752.538	2496.54
752.789	2637.54
753.041	2697.54
753.293	2673.54
753.544	2621.54
753.796	2631.54
754.048	2697.54
754.299	2689.54
754.551	2669.54
754.803	2579.54
755.054	2597.54
755.306	2637.54
755.558	2502.54
755.809	2532.54
756.061	2704.54
756.312	2597.54
756.564	2544.54
756.816	2573.54
757.067	2571.54
757.319	2531.54
757.57	2523.54
757.822	2605.54
758.073	2673.54
758.325	2630.54
758.577	2461.54
758.828	2442.54
759.08	2665.54
759.331	2639.54
759.583	2434.54
759.834	2552.54
760.086	2528.54
760.337	2511.54
760.589	2441.54
760.84	2444.54
761.092	2487.54
761.343	2435.54
761.595	2300.54
761.846	2452.54
762.097	2502.54
762.349	2436.54
762.6	2303.54
762.852	2414.54
763.103	2531.54
763.355	2352.54
763.606	2281.54
763.857	2437.54
764.109	2517.54
764.36	2401.54
764.612	2344.54
764.863	2439.54
765.114	2408.54
765.366	2279.54
765.617	2211.54
765.868	2266.54
766.12	2439.54
766.371	2429.54
766.622	2220.54
766.874	2316.54
767.125	2477.54
767.376	2321.54
767.628	2211.54
767.879	2299.54
768.13	2403.54
768.381	2347.54
768.633	2290.54
768.884	2309.54
769.135	2391.54
769.386	2357.54
769.638	2301.54
769.889	2282.54
770.14	2310.54
770.391	2221.54
770.643	2177.54
770.894	2156.54
771.145	2269.54
771.396	2196.54
771.647	2110.54
771.899	2219.54
772.15	2276.54
772.401	2233.54
772.652	2073.54
772.903	2108.54
773.154	2496.54
773.406	2713.54
773.657	2152.54
773.908	2130.54
774.159	2202.54
774.41	2215.54
774.661	2067.54
774.912	2123.54
775.163	2284.54
775.414	2243.54
775.666	2036.54
775.917	2055.54
776.168	2084.54
776.419	2088.54
776.67	2009.54
776.921	2037.54
777.172	2087.54
777.423	2145.54
777.674	2156.54
777.925	2127.54
778.176	2043.54
778.427	2045.54
778.678	1969.54
778.929	1991.54
779.18	2090.54
779.431	1989.54
779.682	1985.54
779.933	2021.54
780.184	2075.54
780.435	2031.54
780.686	1980.54
780.937	2045.54
781.188	2056.54
781.439	2154.54
781.69	2079.54
781.941	2015.54
782.191	1998.54
782.442	1994.54
782.693	1897.54
782.944	1904.54
783.195	2013.54
783.446	2005.54
783.697	2013.54
783.948	1897.54
784.199	1933.54
784.449	1888.54
784.7	1893.54
784.951	1907.54
785.202	2038.54
785.453	1986.54
785.704	1813.54
785.954	1830.54
786.205	1914.54
786.456	1840.54
786.707	1793.54
786.958	1825.54
787.208	1925.54
787.459	1896.54
787.71	1884.54
787.961	1833.54
788.211	1887.54
788.462	1881.54
788.713	1830.54
788.964	1827.54
789.214	1904.54
789.465	1883.54
789.716	1830.54
789.967	1852.54
790.217	1837.54
790.468	1799.54
790.719	1753.54
790.969	1782.54
791.22	1844.54
791.471	1906.54
791.721	1911.54
791.972	1780.54
792.223	1852.54
792.473	1795.54
792.724	1787.54
792.975	1749.54
793.225	1801.54
793.476	1762.54
793.726	1689.54
793.977	1800.54
794.228	1937.54
794.478	1798.54
794.729	1693.54
794.979	1805.54
795.23	1820.54
795.481	1752.54
795.731	1655.54
795.982	1694.54
796.232	1736.54
796.483	1697.54
796.733	1653.54
796.984	1681.54
797.234	1729.54
797.485	1760.54
797.735	1600.54
797.986	1637.54
798.236	1726.54
798.487	1669.54
798.737	1665.54
798.988	1754.54
799.238	1814.54
799.489	1691.54
799.739	1601.54
799.99	1661.54
800.24	1765.54
800.491	1820.54
800.741	1679.54
800.991	1612.54
801.242	1665.54
801.492	1682.54
801.743	1608.54
801.993	1720.54
802.244	1845.54
802.494	1656.54
802.744	1613.54
802.995	1631.54
803.245	1674.54
803.495	1606.54
803.746	1580.54
803.996	1665.54
804.246	1606.54
804.497	1612.54
804.747	1513.54
804.997	1581.54
805.248	1590.54
805.498	1545.54
805.748	1557.54
805.999	1469.54
806.249	1541.54
806.499	1555.54
806.75	1439.54
807	1462.54
807.25	1577.54
807.5	1496.54
807.751	1505.54
808.001	1578.54
808.251	1600.54
808.501	1674.54
808.752	1660.54
809.002	1586.54
809.252	1558.54
809.502	1475.54
809.752	1466.54
810.003	1432.54
810.253	1488.54
810.503	1516.54
810.753	1559.54
811.003	1568.54
811.254	1587.54
811.504	1515.54
811.754	1450.54
812.004	1496.54
812.254	1736.54
812.504	1525.54
812.754	1423.54
813.005	1484.54
813.255	1549.54
813.505	1496.54
813.755	1383.54
814.005	1473.54
814.255	1475.54
814.505	1434.54
814.755	1345.54
815.005	1369.54
815.255	1491.54
815.505	1446.54
815.756	1491.54
816.006	1458.54
816.256	1396.54
816.506	1355.54
816.756	1315.54
817.006	1364.54
817.256	1460.54
817.506	1451.54
817.756	1370.54
818.006	1388.54
818.256	1429.54
818.506	1437.54
818.756	1309.54
819.006	1338.54
819.256	1396.54
819.506	1348.54
819.756	1308.54
820.006	1406.54
820.255	1447.54
820.505	1411.54
820.755	1270.54
821.005	1324.54
821.255	1439.54
821.505	1391.54
821.755	1323.54
822.005	1392.54
822.255	1442.54
822.505	1361.54
822.755	1402.54
823.004	1279.54
823.254	1300.54
823.504	1366.54
823.754	1349.54
824.004	1263.54
824.254	1375.54
824.504	1356.54
824.753	1392.54
825.003	1385.54
825.253	1445.54
825.503	1330.54
825.753	1271.54
826.002	1356.54
826.252	1565.54
826.502	1373.54
826.752	1276.54
827.002	1267.54
827.251	1363.54
827.501	1305.54
827.751	1244.54
828.001	1252.54
828.25	1347.54
828.5	1188.54
828.75	1174.54
829	1282.54
829.249	1399.54
829.499	1246.54
829.749	1212.54
829.998	1294.54
830.248	1331.54
830.498	1206.54
830.748	1197.54
830.997	1262.54
831.247	1320.54
831.497	1323.54
831.746	1228.54
831.996	1292.54
832.246	1435.54
832.495	1437.54
832.745	1161.54
832.994	1165.54
833.244	1334.54
833.494	1240.54
833.743	1135.54
833.993	1181.54
834.243	1264.54
834.492	1225.54
834.742	1232.54
834.991	1196.54
835.241	1350.54
835.49	1204.54
835.74	1103.54
835.99	1175.54
836.239	1277.54
836.489	1301.54
836.738	1202.54
836.988	1083.54
837.237	1181.54
837.487	1297.54
837.736	1182.54
837.986	1133.54
838.235	1228.54
838.485	1174.54
838.734	1136.54
838.984	1214.54
839.233	1190.54
839.483	1100.54
839.732	1067.54
839.982	1146.54
840.231	1202.54
840.481	1179.54
840.73	1074.54
840.979	1127.54
841.229	1161.54
841.478	1140.54
841.728	997.54
841.977	983.54
842.227	1049.54
842.476	1045.54
842.725	1011.54
842.975	1039.54
843.224	1166.54
843.474	1223.54
843.723	1091.54
843.972	1080.54
844.222	1123.54
844.471	1167.54
844.72	1044.54
844.97	1046.54
845.219	1148.54
845.468	1137.54
845.718	1049.54
845.967	1088.54
846.216	1153.54
846.466	1178.54
846.715	1033.54
846.964	1067.54
847.214	1044.54
847.463	989.54
847.712	1039.54
847.961	1014.54
848.211	1073.54
848.46	1060.54
848.709	1008.54
848.958	989.54
849.208	1037.54
849.457	1050.54
849.706	1066.54
849.955	1012.54
850.205	988.54
850.454	1116.54
850.703	1142.54
850.952	1092.54
851.201	1112.54
851.451	1046.54
851.7	1047.54
851.949	930.54
852.198	1022.54
852.447	1012.54
852.696	935.54
852.946	970.54
853.195	1071.54
853.444	1076.54
853.693	896.54
853.942	886.54
854.191	989.54
854.44	1019.54
854.689	958.54
854.939	901.54
855.188	880.54
855.437	904.54
855.686	908.54
855.935	941.54
856.184	992.54
856.433	1054.54
856.682	986.54
856.931	953.54
857.18	982.54
857.429	908.54
857.678	837.54
857.927	893.54
858.176	949.54
858.425	885.54
858.674	779.54
858.924	881.54
859.173	908.54
859.422	917.54
859.671	799.54
859.92	863.54
860.169	917.54
860.417	953.54
860.666	871.54
860.915	818.54
861.164	864.54
861.413	826.54
861.662	762.54
861.911	828.54
862.16	937.54
862.409	891.54
862.658	737.54
862.907	796.54
863.156	906.54
863.405	891.54
863.654	781.54
863.903	761.54
864.151	841.54
864.4	849.54
864.649	817.54
864.898	881.54
865.147	914.54
865.396	947.54
865.645	793.54
865.894	832.54
866.142	944.54
866.391	857.54
866.64	749.54
866.889	837.54
867.138	977.54
867.387	859.54
867.635	755.54
867.884	823.54
868.133	889.54
868.382	828.54
868.631	721.54
868.879	746.54
869.128	820.54
869.377	822.54
869.626	775.54
869.874	780.54
870.123	856.54
870.372	811.54
870.621	706.54
870.869	727.54
871.118	835.54
871.367	823.54
871.616	709.54
871.864	806.54
872.113	843.54
872.362	793.54
872.61	723.54
872.859	771.54
873.108	844.54
873.357	763.54
873.605	655.54
873.854	669.54
874.103	727.54
874.351	709.54
874.6	680.54
874.848	748.54
875.097	805.54
875.346	801.54
875.594	658.54
875.843	771.54
876.092	888.54
876.34	787.54
876.589	673.54
876.837	579.54
877.086	684.54
877.335	767.54
877.583	686.54
877.832	724.54
878.08	858.54
878.329	720.54
878.578	640.54
878.826	686.54
879.075	760.54
879.323	767.54
879.572	682.54
879.82	788.54
880.069	743.54
880.317	745.54
880.566	612.54
880.814	712.54
881.063	833.54
881.311	736.54
881.56	767.54
881.808	662.54
882.057	744.54
882.305	722.54
882.554	741.54
882.802	622.54
883.051	659.54
883.299	678.54
883.548	632.54
883.796	719.54
884.045	712.54
884.293	647.54
884.541	527.54
884.79	518.54
885.038	633.54
885.287	641.54
885.535	647.54
885.783	650.54
886.032	606.54
886.28	572.54
886.529	538.54
886.777	591.54
887.025	731.54
887.274	647.54
887.522	580.54
887.77	582.54
888.019	583.54
888.267	579.54
888.516	509.54
888.764	528.54
889.012	624.54
889.261	601.54
889.509	531.54
889.757	548.54
890.005	580.54
890.254	518.54
890.502	554.54
890.75	768.54
890.999	757.54
891.247	641.54
891.495	613.54
891.743	588.54
891.992	726.54
892.24	606.54
892.488	515.54
892.737	513.54
892.985	599.54
893.233	602.54
893.481	568.54
893.729	521.54
893.978	675.54
894.226	692.54
894.474	526.54
894.722	521.54
894.97	558.54
895.219	545.54
895.467	571.54
895.715	585.54
895.963	565.54
896.211	522.54
896.46	431.54
896.708	539.54
896.956	616.54
897.204	696.54
897.452	619.54
897.7	535.54
897.948	596.54
898.197	544.54
898.445	498.54
898.693	507.54
898.941	575.54
899.189	568.54
899.437	502.54
899.685	606.54
899.933	539.54
900.181	532.54
900.43	476.54
900.678	494.54
900.926	554.54
901.174	517.54
901.422	460.54
901.67	476.54
901.918	544.54
902.166	515.54
902.414	385.54
902.662	434.54
902.91	534.54
903.158	514.54
903.406	461.54
903.654	495.54
903.902	527.54
904.15	489.54
904.398	371.54
904.646	473.54
904.894	550.54
905.142	544.54
905.39	505.54
905.638	438.54
905.886	479.54
906.134	463.54
906.382	440.54
906.63	405.54
906.878	492.54
907.126	480.54
907.374	415.54
907.622	429.54
907.869	543.54
908.117	503.54
908.365	433.54
908.613	397.54
908.861	428.54
909.109	386.54
909.357	356.54
909.605	439.54
909.853	507.54
910.1	436.54
910.348	276.54
910.596	327.54
910.844	503.54
911.092	531.54
911.34	384.54
911.588	405.54
911.835	462.54
912.083	448.54
912.331	437.54
912.579	492.54
912.827	648.54
913.075	502.54
913.322	352.54
913.57	343.54
913.818	481.54
914.066	434.54
914.313	373.54
914.561	429.54
914.809	471.54
915.057	395.54
915.305	367.54
915.552	363.54
915.8	473.54
916.048	403.54
916.296	328.54
916.543	430.54
916.791	509.54
917.039	443.54
917.286	321.54
917.534	351.54
917.782	465.54
918.03	379.54
918.277	259.54
918.525	273.54
918.773	384.54
919.02	386.54
919.268	323.54
919.516	339.54
919.763	343.54
920.011	362.54
920.259	271.54
920.506	349.54
920.754	450.54
921.002	443.54
921.249	392.54
921.497	343.54
921.745	384.54
921.992	389.54
922.24	251.54
922.487	368.54
922.735	540.54
922.983	431.54
923.23	338.54
923.478	288.54
923.725	389.54
923.973	402.54
924.221	367.54
924.468	416.54
924.716	404.54
924.963	360.54
925.211	299.54
925.458	369.54
925.706	481.54
925.953	508.54
926.201	310.54
926.448	291.54
926.696	388.54
926.944	365.54
927.191	305.54
927.439	300.54
927.686	335.54
927.934	366.54
928.181	256.54
928.429	246.54
928.676	302.54
928.923	244.54
929.171	216.54
929.418	340.54
929.666	407.54
929.913	398.54
930.161	204.54
930.408	241.54
930.656	315.54
930.903	358.54
931.151	215.54
931.398	268.54
931.645	390.54
931.893	283.54
932.14	236.54
932.388	263.54
932.635	419.54
932.882	460.54
933.13	337.54
933.377	250.54
933.625	332.54
933.872	281.54
934.119	211.54
934.367	235.54
934.614	251.54
934.861	229.54
935.109	218.54
935.356	274.54
935.603	328.54
935.851	271.54
936.098	203.54
936.345	316.54
936.593	356.54
936.84	297.54
937.087	150.54
937.335	208.54
937.582	282.54
937.829	310.54
938.077	273.54
938.324	259.54
938.571	320.54
938.818	252.54
939.066	188.54
939.313	160.54
939.56	298.54
939.807	301.54
940.055	182.54
940.302	213.54
940.549	388.54
940.796	312.54
941.044	248.54
941.291	243.54
941.538	411.54
941.785	301.54
942.033	228.54
942.28	300.54
942.527	326.54
942.774	304.54
943.021	157.54
943.269	185.54
943.516	306.54
943.763	315.54
944.01	249.54
944.257	303.54
944.504	387.54
944.752	350.54
944.999	275.54
945.246	187.54
945.493	277.54
945.74	261.54
945.987	174.54
946.234	255.54
946.482	343.54
946.729	239.54
946.976	169.54
947.223	206.54
947.47	349.54
947.717	314.54
947.964	303.54
948.211	275.54
948.458	338.54
948.705	257.54
948.952	173.54
949.2	240.54
949.447	354.54
949.694	352.54
949.941	195.54
950.188	184.54
950.435	197.54
950.682	229.54
950.929	119.54
951.176	176.54
951.423	335.54
951.67	296.54
951.917	254.54
952.164	250.54
952.411	302.54
952.658	342.54
952.905	199.54
953.152	134.54
953.399	253.54
953.646	254.54
953.893	148.54
954.14	188.54
954.387	232.54
954.634	232.54
954.881	158.54
955.128	213.54
955.375	197.54
955.622	201.54
955.869	204.54
956.115	173.54
956.362	268.54
956.609	233.54
956.856	158.54
957.103	151.54
957.35	256.54
957.597	276.54
957.844	217.54
958.091	201.54
958.338	261.54
958.585	201.54
958.831	38.54
959.078	107.54
959.325	275.54
959.572	169.54
959.819	94.54
960.066	59.54
960.313	180.54
960.559	169.54
960.806	65.54
961.053	106.54
961.3	253.54
961.547	271.54
961.794	84.54
962.04	227.54
962.287	256.54
962.534	135.54
962.781	114.54
963.028	172.54
963.274	282.54
963.521	180.54
963.768	111.54
964.015	151.54
964.262	318.54
964.508	164.54
964.755	59.54
965.002	87.54
965.249	138.54
965.495	88.54
965.742	67.54
965.989	84.54
966.236	195.54
966.482	119.54
966.729	52.54
966.976	49.54
967.222	113.54
967.469	126.54
967.716	72.54
967.963	74.54
968.209	159.54
968.456	121.54
968.703	9.54
968.949	98.54
969.196	281.54
969.443	279.54
969.689	53.54
969.936	35.54
970.183	138.54
970.429	76.54
970.676	36.54
970.923	110.54
971.169	169.54
971.416	86.54
971.663	63.54
971.909	118.54
972.156	180.54
972.402	169.54
972.649	99.54
972.896	127.54
973.142	148.54
973.389	178.54
973.635	75.54
973.882	178.54
974.129	241.54
974.375	129.54
974.622	25.54
974.868	33.54
975.115	121.54
975.361	81.54
975.608	55.54
975.855	176.54
976.101	199.54
976.348	118.54
976.594	70.54
976.841	117.54
977.087	125.54
977.334	163.54
977.58	16.54
977.827	10.54
978.073	164.54
978.32	129.54
978.566	1.54
978.813	93.54
979.059	120.54
979.306	108.54
979.552	17.54
979.799	88.54
980.045	84.54
980.292	84.54
980.538	9.54
980.785	9.54
981.031	63.54
981.278	48.54
981.524	-18.46
981.771	118.54
982.017	257.54
982.263	148.54
982.51	-0.46
982.756	87.54
983.003	155.54
983.249	84.54
983.495	5.54
983.742	-8.46
983.988	69.54
984.235	94.54
984.481	2.54
984.727	6.54
984.974	144.54
985.22	139.54
985.467	61.54
985.713	48.54
985.959	181.54
986.206	154.54
986.452	54.54
986.698	101.54
986.945	104.54
987.191	148.54
987.437	150.54
987.684	95.54
987.93	247.54
988.176	151.54
988.423	-30.46
988.669	55.54
988.915	228.54
989.162	87.54
989.408	-21.46
989.654	47.54
989.901	74.54
990.147	67.54
990.393	67.54
990.639	147.54
990.886	158.54
991.132	210.54
991.378	164.54
991.625	265.54
991.871	231.54
992.117	169.54
992.363	100.54
992.61	103.54
992.856	213.54
993.102	76.54
993.348	18.54
993.594	41.54
993.841	77.54
994.087	211.54
994.333	72.54
994.579	67.54
994.826	97.54
995.072	101.54
995.318	-64.46
995.564	-24.46
995.81	102.54
996.057	67.54
996.303	-44.46
996.549	-30.46
996.795	87.54
997.041	62.54
997.287	17.54
997.534	25.54
997.78	68.54
998.026	80.54
998.272	-26.46
998.518	-20.46
998.764	131.54
999.01	142.54
999.256	40.54
999.503	12.54
999.749	30.54
999.995	-25.46
1000.241	-43.46
1000.487	43.54
1000.733	86.54
1000.979	56.54
1001.225	19.54
1001.471	60.54
1001.718	121.54
1001.964	167.54
1002.21	-9.46
1002.456	22.54
1002.702	189.54
1002.948	82.54
1003.194	6.54
1003.44	-17.46
1003.686	70.54
1003.932	12.54
1004.178	-41.46
1004.424	25.54
1004.67	173.54
1004.916	145.54
1005.162	28.54
1005.408	-9.46
1005.654	140.54
1005.9	-42.46
1006.146	-87.46
1006.392	-3.46
1006.638	77.54
1006.884	36.54
1007.13	-49.46
1007.376	-69.46
1007.622	116.54
1007.868	139.54
1008.114	7.54
1008.36	60.54
1008.606	104.54
1008.852	116.54
1009.098	59.54
1009.344	88.54
1009.59	68.54
1009.836	-52.46
1010.082	-129.46
1010.328	-24.46
1010.574	49.54
1010.82	-38.46
1011.065	-106.46
1011.311	-81.46
1011.557	10.54
1011.803	0.54
1012.049	-68.46
1012.295	-18.46
1012.541	27.54
1012.787	30.54
1013.033	-97.46
1013.278	-114.46
1013.524	35.54
1013.77	105.54
1014.016	-13.46
1014.262	-7.46
1014.508	104.54
1014.754	-46.46
1015	-72.46
1015.245	89.54
1015.491	105.54
1015.737	77.54
1015.983	-75.46
1016.229	-91.46
1016.475	30.54
1016.72	167.54
1016.966	173.54
1017.212	64.54
1017.458	127.54
1017.704	43.54
1017.949	-82.46
1018.195	72.54
1018.441	169.54
1018.687	127.54
1018.933	-22.46
1019.178	-28.46
1019.424	136.54
1019.67	148.54
1019.916	-63.46
1020.161	-7.46
1020.407	66.54
1020.653	2.54
1020.899	-74.46
1021.144	-1.46
1021.39	72.54
1021.636	-38.46
1021.882	-125.46
1022.127	-6.46
1022.373	142.54
1022.619	67.54
1022.865	-30.46
1023.11	-27.46
1023.356	99.54
1023.602	26.54
1023.847	-36.46
1024.093	14.54
1024.339	-0.46
1024.584	-41.46
1024.83	-44.46
1025.076	-40.46
1025.321	94.54
1025.567	55.54
1025.813	-64.46
1026.058	22.54
1026.304	78.54
1026.55	-0.46
1026.795	-14.46
1027.041	-16.46
1027.287	47.54
1027.532	66.54
1027.778	27.54
1028.024	-3.46
1028.269	26.54
1028.515	-52.46
1028.76	-96.46
1029.006	-5.46
1029.252	99.54
1029.497	16.54
1029.743	-6.46
1029.989	-78.46
1030.234	70.54
1030.48	139.54
1030.725	-63.46
1030.971	-18.46
1031.216	123.54
1031.462	26.54
1031.708	-115.46
1031.953	-64.46
1032.199	14.54
1032.444	23.54
1032.69	-11.46
1032.935	-39.46
1033.181	78.54
1033.426	-46.46
1033.672	-176.46
1033.918	-111.46
1034.163	-3.46
1034.409	-17.46
1034.654	-74.46
1034.9	19.54
1035.145	78.54
1035.391	11.54
1035.636	-112.46
1035.882	-18.46
1036.127	-40.46
1036.373	-68.46
1036.618	-163.46
1036.864	-60.46
1037.109	87.54
1037.355	-14.46
1037.6	-92.46
1037.845	-51.46
1038.091	116.54
1038.336	76.54
1038.582	103.54
1038.827	188.54
1039.073	21.54
1039.318	-54.46
1039.564	-155.46
1039.809	-72.46
1040.055	117.54
1040.3	102.54
1040.545	-57.46
1040.791	-60.46
1041.036	-14.46
1041.282	21.54
1041.527	79.54
1041.772	-83.46
1042.018	-25.46
1042.263	17.54
1042.509	-131.46
1042.754	-87.46
1042.999	31.54
1043.245	0.54
1043.49	-173.46
1043.736	-104.46
1043.981	-9.46
1044.226	8.54
1044.472	-3.46
1044.717	-3.46
1044.962	95.54
1045.208	14.54
1045.453	-212.46
1045.698	-146.46
1045.944	49.54
1046.189	20.54
1046.434	-80.46
1046.68	-68.46
1046.925	108.54
1047.17	-40.46
1047.416	-201.46
1047.661	-92.46
1047.906	42.54
1048.152	21.54
1048.397	-59.46
1048.642	-66.46
1048.887	111.54
1049.133	108.54
1049.378	-67.46
1049.623	-88.46
1049.869	44.54
1050.114	-43.46
1050.359	-117.46
1050.604	-42.46
1050.85	127.54
1051.095	-12.46
1051.34	-107.46
1051.585	-33.46
1051.831	137.54
1052.076	-3.46
1052.321	-209.46
1052.566	-104.46
1052.812	80.54
1053.057	-4.46
1053.302	-82.46
1053.547	15.54
1053.792	82.54
1054.038	64.54
1054.283	-132.46
1054.528	-53.46
1054.773	21.54
1055.018	0.54
1055.264	-111.46
1055.509	-130.46
1055.754	7.54
1055.999	-70.46
1056.244	-144.46
1056.49	-73.46
1056.735	24.54
1056.98	-33.46
1057.225	-135.46
1057.47	56.54
1057.715	-20.46
1057.96	-111.46
1058.206	-144.46
1058.451	-38.46
1058.696	93.54
1058.941	7.54
1059.186	-152.46
1059.431	-123.46
1059.676	74.54
1059.922	21.54
1060.167	117.54
1060.412	303.54
1060.657	65.54
1060.902	-10.46
1061.147	-170.46
1061.392	-86.46
1061.637	57.54
1061.882	-24.46
1062.127	-180.46
1062.373	-164.46
1062.618	105.54
1062.863	145.54
1063.108	-60.46
1063.353	-120.46
1063.598	-18.46
1063.843	-46.46
1064.088	-113.46
1064.333	-118.46
1064.578	27.54
1064.823	45.54
1065.068	-191.46
1065.313	-123.46
1065.558	24.54
1065.803	36.54
1066.048	-165.46
1066.293	-156.46
1066.538	71.54
1066.783	-7.46
1067.028	-191.46
1067.273	-154.46
1067.518	16.54
1067.763	-39.46
1068.008	-192.46
1068.253	-114.46
1068.498	46.54
1068.743	-8.46
1068.988	-155.46
1069.233	-138.46
1069.478	72.54
1069.723	122.54
1069.968	-82.46
1070.213	-32.46
1070.458	61.54
1070.703	-40.46
1070.948	-208.46
1071.193	-110.46
1071.438	43.54
1071.683	68.54
1071.928	-60.46
1072.173	-67.46
1072.418	9.54
1072.663	-52.46
1072.908	-191.46
1073.152	-107.46
1073.397	62.54
1073.642	-57.46
1073.887	-96.46
1074.132	24.54
1074.377	32.54
1074.622	-0.46
1074.867	-127.46
1075.112	-62.46
1075.357	128.54
1075.601	-29.46
1075.846	-85.46
1076.091	22.54
1076.336	69.54
1076.581	-73.46
1076.826	-182.46
1077.071	-88.46
1077.315	159.54
1077.56	96.54
1077.805	-112.46
1078.05	-72.46
1078.295	-39.46
1078.54	-66.46
1078.785	-190.46
1079.029	-125.46
1079.274	39.54
1079.519	-82.46
1079.764	-168.46
1080.009	-50.46
1080.253	10.54
1080.498	-75.46
1080.743	-243.46
1080.988	-78.46
1081.233	151.54
1081.478	97.54
1081.722	-117.46
1081.967	-15.46
1082.212	138.54
1082.457	24.54
1082.701	-133.46
1082.946	-85.46
1083.191	43.54
1083.436	-89.46
1083.681	-220.46
1083.925	-107.46
1084.17	-10.46
1084.415	15.54
1084.66	-191.46
1084.904	-92.46
1085.149	-7.46
1085.394	-39.46
1085.639	-210.46
1085.883	-101.46
1086.128	150.54
1086.373	139.54
1086.617	-94.46
1086.862	-152.46
1087.107	-22.46
1087.352	-75.46
1087.596	-152.46
1087.841	-5.46
1088.086	31.54
1088.33	3.54
1088.575	-230.46
1088.82	-96.46
1089.064	65.54
1089.309	-91.46
1089.554	-190.46
1089.798	-154.46
1090.043	49.54
1090.288	-29.46
1090.533	-218.46
1090.777	-120.46
1091.022	27.54
1091.266	58.54
1091.511	-129.46
1091.756	-47.46
1092	104.54
1092.245	77.54
1092.49	-172.46
1092.734	-112.46
1092.979	90.54
1093.224	-16.46
1093.468	-185.46
1093.713	-136.46
1093.957	4.54
1094.202	-51.46
1094.447	-223.46
1094.691	-97.46
1094.936	52.54
1095.181	0.54
1095.425	-171.46
1095.67	-138.46
1095.914	36.54
1096.159	11.54
1096.403	-153.46
1096.648	-47.46
1096.893	69.54
1097.137	-101.46
1097.382	-254.46
1097.626	-164.46
1097.871	22.54
1098.115	-29.46
1098.36	-214.46
1098.605	-116.46
1098.849	-42.46
1099.094	-101.46
1099.338	-175.46
1099.583	-100.46
1099.827	122.54
1100.072	32.54
1100.316	-159.46
1100.561	-111.46
1100.805	37.54
1101.05	23.54
1101.294	-176.46
1101.539	-163.46
1101.783	-4.46
1102.028	0.54
1102.273	-142.46
1102.517	-85.46
1102.761	39.54
1103.006	-71.46
1103.25	-270.46
1103.495	-174.46
1103.739	43.54
1103.984	105.54
1104.228	-86.46
1104.473	-27.46
1104.717	40.54
1104.962	-2.46
1105.206	-127.46
1105.451	-134.46
1105.695	18.54
1105.94	-13.46
1106.184	-135.46
1106.429	-86.46
1106.673	17.54
1106.917	75.54
1107.162	-167.46
1107.406	-22.46
1107.651	139.54
1107.895	-86.46
1108.14	-204.46
1108.384	-90.46
1108.628	109.54
1108.873	92.54
1109.117	-150.46
1109.362	-119.46
1109.606	-11.46
1109.85	-7.46
1110.095	-158.46
1110.339	-107.46
1110.584	84.54
1110.828	15.54
1111.072	-90.46
1111.317	-126.46
1111.561	-21.46
1111.806	-30.46
1112.05	-176.46
1112.294	-86.46
1112.539	23.54
1112.783	-16.46
1113.027	-126.46
1113.272	-127.46
1113.516	-42.46
1113.76	-60.46
1114.005	-153.46
1114.249	-85.46
1114.493	73.54
1114.738	108.54
1114.982	-28.46
1115.226	-93.46
1115.471	-17.46
1115.715	-30.46
1115.959	-200.46
1116.204	-168.46
1116.448	-5.46
1116.692	-100.46
1116.937	-182.46
1117.181	-9.46
1117.425	-10.46
1117.67	-79.46
1117.914	-143.46
1118.158	-97.46
1118.402	130.54
1118.647	51.54
1118.891	-99.46
1119.135	-36.46
1119.38	106.54
1119.624	17.54
1119.868	-155.46
1120.112	-154.46
1120.357	-65.46
1120.601	-127.46
1120.845	-206.46
1121.089	-147.46
1121.334	31.54
