Data from HR4C21111__35__10-11-43-071.txt Node

Date: Mon Feb 22 10:11:43 IST 2021
User: Kapil
Spectrometer: HR4C2111
Trigger mode: 4
Integration Time (sec): 2.300000E0
Scans to average: 1
Electric dark correction enabled: true
Nonlinearity correction enabled: false
Boxcar width: 0
XAxis mode: Wavelengths
Number of Pixels in Spectrum: 3648
>>>>>Begin Spectral Data<<<<<
189.472	-461
189.745	-461
190.017	-461
190.289	-466
190.561	-303
190.834	-32
191.106	-118
191.378	7
191.65	11
191.923	-135
192.195	-88
192.467	129
192.739	114
193.011	-38
193.284	82
193.556	181
193.828	-17
194.1	-96
194.372	-117
194.644	59
194.916	63
195.188	-134
195.46	-55
195.732	49
196.004	-22
196.276	-111
196.548	-70
196.82	69
197.092	59
197.364	-129
197.636	-90
197.908	33
198.18	-45
198.452	-103
198.724	-41
198.996	56
199.268	73
199.54	-36
199.811	-121
200.083	91
200.355	13
200.627	-188
200.899	-62
201.171	54
201.442	-62
201.714	-187
201.986	-95
202.258	58
202.529	111
202.801	21
203.073	91
203.345	197
203.616	15
203.888	-139
204.16	-164
204.431	55
204.703	-10
204.974	-142
205.246	-11
205.518	169
205.789	8
206.061	-129
206.332	-98
206.604	9
206.876	93
207.147	140
207.419	11
207.69	133
207.962	-24
208.233	-168
208.505	11
208.776	175
209.047	80
209.319	-127
209.59	-66
209.862	154
210.133	51
210.404	-155
210.676	-115
210.947	70
211.219	72
211.49	-114
211.761	-44
212.033	36
212.304	-32
212.575	-178
212.846	-73
213.118	38
213.389	-52
213.66	-100
213.931	-34
214.203	33
214.474	-51
214.745	-139
215.016	126
215.287	426
215.559	65
215.83	-103
216.101	-72
216.372	9
216.643	63
216.914	11
217.185	-77
217.456	148
217.727	14
217.998	-166
218.269	-57
218.54	22
218.811	-12
219.082	-106
219.353	-77
219.624	-22
219.895	-39
220.166	-142
220.437	-112
220.708	103
220.979	-14
221.25	-136
221.521	-85
221.792	32
222.063	78
222.334	36
222.604	182
222.875	170
223.146	95
223.417	-162
223.688	-27
223.958	113
224.229	-53
224.5	-188
224.771	-75
225.041	84
225.312	37
225.583	-110
225.854	-59
226.124	87
226.395	4
226.666	-120
226.936	-90
227.207	74
227.478	-46
227.748	-100
228.019	48
228.289	243
228.56	-36
228.831	-48
229.101	56
229.372	60
229.642	-16
229.913	-155
230.183	-125
230.454	3
230.724	0
230.995	-112
231.265	-56
231.536	70
231.806	48
232.076	-87
232.347	-104
232.617	32
232.888	28
233.158	-70
233.428	-125
233.699	-18
233.969	-47
234.239	-160
234.51	-87
234.78	49
235.05	-20
235.321	-115
235.591	-70
235.861	47
236.131	-61
236.402	-182
236.672	-86
236.942	56
237.212	40
237.483	-74
237.753	17
238.023	186
238.293	24
238.563	-84
238.833	-112
239.103	67
239.374	-21
239.644	-148
239.914	-39
240.184	130
240.454	-13
240.724	-172
240.994	-73
241.264	3
241.534	61
241.804	-18
242.074	-102
242.344	-48
242.614	-63
242.884	-190
243.154	-133
243.424	34
243.694	72
243.964	-96
244.234	-85
244.503	121
244.773	-1
245.043	-214
245.313	-145
245.583	114
245.853	75
246.123	-186
246.392	-117
246.662	3
246.932	-38
247.202	-199
247.471	-64
247.741	247
248.011	96
248.281	-137
248.55	-93
248.82	56
249.09	-8
249.359	-87
249.629	-71
249.899	53
250.168	57
250.438	-19
250.708	-102
250.977	84
251.247	50
251.516	-129
251.786	-48
252.055	112
252.325	14
252.595	-110
252.864	-62
253.134	60
253.403	-25
253.673	-180
253.942	-128
254.212	32
254.481	7
254.75	-121
255.02	-79
255.289	84
255.559	-10
255.828	-149
256.097	-36
256.367	18
256.636	-65
256.906	-141
257.175	-8
257.444	257
257.714	59
257.983	-75
258.252	-37
258.521	7
258.791	36
259.06	-110
259.329	-43
259.598	77
259.868	2
260.137	-128
260.406	-6
260.675	79
260.944	33
261.214	-136
261.483	-52
261.752	177
262.021	14
262.29	-155
262.559	-104
262.828	15
263.097	-53
263.366	-205
263.635	-91
263.905	116
264.174	15
264.443	-208
264.712	-125
264.981	33
265.25	-36
265.519	-141
265.788	-146
266.057	23
266.325	61
266.594	-47
266.863	-114
267.132	33
267.401	5
267.67	-200
267.939	-146
268.208	34
268.477	78
268.745	-111
269.014	-99
269.283	130
269.552	31
269.821	-130
270.089	-27
270.358	-7
270.627	-23
270.896	-126
271.164	-163
271.433	22
271.702	87
271.971	-145
272.239	-137
272.508	11
272.777	-52
273.045	-23
273.314	-25
273.583	88
273.851	-22
274.12	-165
274.388	-139
274.657	-5
274.926	4
275.194	-157
275.463	-65
275.731	19
276	174
276.268	372
276.537	-78
276.805	35
277.074	35
277.342	-175
277.611	-111
277.879	105
278.148	40
278.416	-143
278.684	-114
278.953	-29
279.221	-37
279.49	-185
279.758	-98
280.026	-15
280.295	-10
280.563	-128
280.831	709
281.1	1811
281.368	176
281.636	-101
281.904	-125
282.173	-21
282.441	-64
282.709	-84
282.977	34
283.246	40
283.514	-33
283.782	-61
284.05	27
284.318	77
284.587	-28
284.855	-125
285.123	-67
285.391	59
285.659	34
285.927	-151
286.195	-59
286.463	60
286.732	-13
287	-135
287.268	-54
287.536	28
287.804	-53
288.072	-153
288.34	-82
288.608	75
288.876	-41
289.144	-123
289.412	-26
289.68	56
289.948	-14
290.215	-109
290.483	-107
290.751	88
291.019	88
291.287	-174
291.555	-118
291.823	18
292.091	-15
292.358	-64
292.626	-14
292.894	76
293.162	43
293.43	-121
293.697	-92
293.965	44
294.233	-37
294.501	-164
294.768	-88
295.036	68
295.304	32
295.572	-131
295.839	-109
296.107	115
296.375	20
296.642	-135
296.91	-120
297.178	43
297.445	168
297.713	90
297.98	-88
298.248	-27
298.516	-48
298.783	-121
299.051	-116
299.318	17
299.586	-41
299.853	-108
300.121	-103
300.388	30
300.656	-18
300.923	-148
301.191	-41
301.458	58
301.726	-11
301.993	-145
302.26	-89
302.528	45
302.795	-29
303.063	-97
303.33	-56
303.597	16
303.865	23
304.132	-122
304.399	-130
304.667	-33
304.934	5
305.201	-121
305.469	-29
305.736	65
306.003	32
306.27	-64
306.538	-109
306.805	-8
307.072	-36
307.339	-79
307.606	-46
307.874	165
308.141	64
308.408	-137
308.675	-107
308.942	-46
309.209	-73
309.477	-141
309.744	-92
310.011	23
310.278	41
310.545	-33
310.812	-52
311.079	147
311.346	207
311.613	54
311.88	-38
312.147	-82
312.414	-45
312.681	-109
312.948	-32
313.215	120
313.482	72
313.749	-125
314.016	-207
314.283	-53
314.55	54
314.817	-106
315.083	-132
315.35	-95
315.617	-148
315.884	-144
316.151	56
316.418	147
316.684	-38
316.951	-192
317.218	-113
317.485	-9
317.752	-64
318.018	-127
318.285	-17
318.552	5
318.819	-64
319.085	-144
319.352	-57
319.619	48
319.885	-27
320.152	-205
320.419	-98
320.685	48
320.952	-20
321.219	-73
321.485	66
321.752	8
322.019	-60
322.285	22
322.552	-16
322.818	133
323.085	-26
323.351	-132
323.618	-12
323.884	43
324.151	-61
324.417	-35
324.684	-66
324.95	-61
325.217	-149
325.483	-176
325.75	-21
326.016	5
326.283	-34
326.549	-200
326.815	-82
327.082	115
327.348	29
327.615	-111
327.881	-39
328.147	121
328.414	143
328.68	23
328.946	-41
329.212	5
329.479	-17
329.745	-121
330.011	-107
330.278	9
330.544	-37
330.81	-18
331.076	-31
331.342	-40
331.609	-50
331.875	-109
332.141	-104
332.407	26
332.673	-10
332.94	-17
333.206	-39
333.472	44
333.738	59
334.004	-115
334.27	-25
334.536	-12
334.802	-56
335.068	-120
335.334	-1
335.6	38
335.866	-35
336.132	-177
336.398	-99
336.664	-11
336.93	-37
337.196	-83
337.462	-2
337.728	36
337.994	-56
338.26	-107
338.526	-59
338.792	-68
339.058	-37
339.324	-140
339.59	-25
339.856	42
340.121	-69
340.387	-148
340.653	63
340.919	147
341.185	67
341.45	-59
341.716	35
341.982	127
342.248	-53
342.514	-84
342.779	-1
343.045	21
343.311	-22
343.576	-102
343.842	-34
344.108	129
344.374	16
344.639	-126
344.905	-83
345.171	59
345.436	-67
345.702	-102
345.967	49
346.233	68
346.499	0
346.764	-189
347.03	-84
347.295	-23
347.561	-4
347.826	-58
348.092	-133
348.357	-43
348.623	-39
348.888	-133
349.154	-88
349.419	40
349.685	-17
349.95	-86
350.216	-59
350.481	28
350.747	-69
351.012	-181
351.277	-119
351.543	13
351.808	-50
352.074	-220
352.339	-139
352.604	22
352.87	-9
353.135	-134
353.4	-75
353.666	-25
353.931	-38
354.196	-157
354.461	-143
354.727	3
354.992	-19
355.257	-150
355.522	-50
355.788	-13
356.053	36
356.318	-101
356.583	-123
356.848	38
357.113	102
357.379	-100
357.644	-111
357.909	78
358.174	91
358.439	-173
358.704	-107
358.969	25
359.234	41
359.499	-143
359.765	-81
360.03	42
360.295	37
360.56	-139
360.825	-71
361.09	128
361.355	-61
361.62	-104
361.885	-73
362.15	-91
362.415	-71
362.679	-139
362.944	28
363.209	31
363.474	31
363.739	-29
364.004	-125
364.269	-52
364.534	-7
364.799	-63
365.063	-61
365.328	27
365.593	25
365.858	-110
366.123	-118
366.387	15
366.652	-49
366.917	-149
367.182	-104
367.447	51
367.711	-18
367.976	-92
368.241	-9
368.505	61
368.77	-48
369.035	-70
369.299	-31
369.564	-8
369.829	-77
370.093	-114
370.358	-119
370.623	-13
370.887	-3
371.152	-155
371.416	-68
371.681	-25
371.946	-129
372.21	-169
372.475	-35
372.739	-12
373.004	-71
373.268	-101
373.533	-37
373.797	17
374.062	4
374.326	-147
374.591	-68
374.855	4
375.12	-67
375.384	-225
375.648	-137
375.913	9
376.177	3
376.442	-128
376.706	-120
376.97	8
377.235	-38
377.499	-72
377.763	-75
378.028	-83
378.292	-32
378.556	-106
378.821	-176
379.085	-96
379.349	-165
379.614	-241
379.878	-123
380.142	59
380.406	-23
380.671	-37
380.935	75
381.199	181
381.463	47
381.727	-21
381.991	-47
382.256	-7
382.52	-59
382.784	-39
383.048	82
383.312	-3
383.576	-50
383.84	-162
384.104	-105
384.369	-13
384.633	-120
384.897	-228
385.161	-97
385.425	17
385.689	-68
385.953	-134
386.217	-150
386.481	-49
386.745	-24
387.009	-86
387.273	-127
387.537	-67
387.801	-51
388.064	-124
388.328	-39
388.592	2
388.856	-72
389.12	-128
389.384	-64
389.648	-25
389.912	20
390.176	42
390.439	131
390.703	-59
390.967	-96
391.231	-179
391.495	-139
391.758	-75
392.022	-48
392.286	-170
392.55	-143
392.813	-26
393.077	17
393.341	-68
393.605	-2
393.868	-37
394.132	-54
394.396	-75
394.659	43
394.923	-15
395.187	-75
395.45	-93
395.714	-41
395.978	-23
396.241	-37
396.505	-100
396.768	-44
397.032	16
397.295	14
397.559	-100
397.823	-136
398.086	12
398.35	-44
398.613	-176
398.877	-25
399.14	101
399.404	92
399.667	-22
399.931	-105
400.194	-6
400.457	-25
400.721	-65
400.984	30
401.248	-24
401.511	-57
401.775	-177
402.038	-125
402.301	75
402.565	19
402.828	-194
403.091	-118
403.355	2
403.618	-4
403.881	-26
404.145	-59
404.408	1
404.671	-40
404.934	-37
405.198	-11
405.461	1
405.724	17
405.987	-28
406.251	14
406.514	93
406.777	-40
407.04	-121
407.303	-114
407.567	24
407.83	72
408.093	-135
408.356	-40
408.619	40
408.882	92
409.145	0
409.408	-45
409.672	42
409.935	-24
410.198	-152
410.461	-64
410.724	102
410.987	-5
411.25	-138
411.513	-28
411.776	46
412.039	-71
412.302	-127
412.565	-115
412.828	-63
413.091	-71
413.354	-150
413.617	-113
413.879	-36
414.142	-6
414.405	-142
414.668	-70
414.931	51
415.194	12
415.457	-138
415.72	-42
415.983	16
416.245	-8
416.508	-98
416.771	-144
417.034	-6
417.297	8
417.559	-55
417.822	-73
418.085	20
418.348	11
418.61	-152
418.873	-135
419.136	-84
419.399	-95
419.661	-76
419.924	-95
420.187	-16
420.449	-34
420.712	-105
420.975	-141
421.237	-26
421.5	-30
421.762	-5
422.025	39
422.288	76
422.55	-105
422.813	-180
423.075	-104
423.338	-33
423.601	-3
423.863	-60
424.126	-47
424.388	65
424.651	-5
424.913	-71
425.176	-79
425.438	-37
425.701	31
425.963	-129
426.225	-170
426.488	-77
426.75	-94
427.013	-152
427.275	-109
427.538	-68
427.8	-64
428.062	-135
428.325	-67
428.587	25
428.849	-27
429.112	-110
429.374	-120
429.636	-49
429.899	16
430.161	-107
430.423	-70
430.686	43
430.948	7
431.21	-130
431.472	-153
431.735	-58
431.997	-93
432.259	-70
432.521	-113
432.783	-15
433.046	-27
433.308	-129
433.57	-87
433.832	127
434.094	-72
434.356	-186
434.618	-101
434.881	-22
435.143	-70
435.405	-63
435.667	-30
435.929	-19
436.191	-51
436.453	-143
436.715	-65
436.977	3
437.239	-66
437.501	-179
437.763	-134
438.025	16
438.287	-19
438.549	-101
438.811	-74
439.073	-52
439.335	-97
439.597	-121
439.859	-44
440.121	61
440.383	-113
440.645	-110
440.907	-37
441.168	-7
441.43	-68
441.692	-158
441.954	-113
442.216	-47
442.478	-61
442.74	-179
443.001	-56
443.263	81
443.525	6
443.787	-125
444.048	-104
444.31	-68
444.572	-72
444.834	-113
445.095	-89
445.357	45
445.619	-23
445.881	-219
446.142	-118
446.404	-57
446.666	-36
446.927	-87
447.189	6
447.451	32
447.712	-25
447.974	-227
448.235	-177
448.497	-31
448.759	-99
449.02	-176
449.282	-196
449.543	-8
449.805	50
450.066	-200
450.328	-71
450.59	116
450.851	-32
451.113	-94
451.374	-150
451.636	-3
451.897	45
452.158	-29
452.42	49
452.681	67
452.943	-115
453.204	-190
453.466	-158
453.727	-85
453.988	-49
454.25	-168
454.511	-189
454.773	-55
455.034	89
455.295	-126
455.557	-157
455.818	-58
456.079	-36
456.341	61
456.602	28
456.863	30
457.124	-52
457.386	-158
457.647	-170
457.908	-66
458.169	21
458.431	-171
458.692	-164
458.953	-62
459.214	-91
459.476	-93
459.737	-18
459.998	33
460.259	-62
460.52	-175
460.781	-130
461.043	36
461.304	-85
461.565	-177
461.826	-140
462.087	-41
462.348	10
462.609	-119
462.87	-61
463.131	-71
463.392	-20
463.653	-95
463.914	-56
464.175	-20
464.436	-77
464.697	-137
464.958	-126
465.219	-37
465.48	-42
465.741	-72
466.002	-102
466.263	-57
466.524	-54
466.785	-132
467.046	-101
467.307	-21
467.568	-94
467.829	-114
468.089	-65
468.35	-7
468.611	-85
468.872	-156
469.133	-40
469.394	24
469.655	72
469.915	-93
470.176	-157
470.437	-126
470.698	-60
470.958	-119
471.219	-164
471.48	-87
471.741	-95
472.001	-163
472.262	-110
472.523	16
472.784	40
473.044	-108
473.305	-71
473.566	48
473.826	12
474.087	-121
474.348	-104
474.608	-45
474.869	12
475.129	-101
475.39	-147
475.651	-57
475.911	-27
476.172	-174
476.432	-57
476.693	89
476.953	13
477.214	-12
477.475	-16
477.735	1
477.996	4
478.256	-168
478.517	-134
478.777	-47
479.038	13
479.298	-7
479.558	-91
479.819	64
480.079	60
480.34	-29
480.6	-96
480.861	6
481.121	-31
481.381	-159
481.642	-67
481.902	-51
482.162	-114
482.423	-110
482.683	-14
482.943	24
483.204	-81
483.464	-101
483.724	-74
483.985	-33
484.245	14
484.505	-85
484.765	-20
485.026	65
485.286	32
485.546	-46
485.806	21
486.067	25
486.327	-84
486.587	-153
486.847	-147
487.107	-11
487.368	-9
487.628	-70
487.888	-71
488.148	20
488.408	-66
488.668	-51
488.928	-34
489.188	-5
489.449	83
489.709	-77
489.969	-91
490.229	24
490.489	-15
490.749	-111
491.009	-182
491.269	-76
491.529	-70
491.789	-156
492.049	-44
492.309	71
492.569	-67
492.829	-91
493.089	-92
493.349	59
493.609	-37
493.869	-140
494.129	-50
494.389	66
494.648	-74
494.908	-166
495.168	-77
495.428	51
495.688	-17
495.948	-180
496.208	-160
496.467	-90
496.727	-49
496.987	-69
497.247	-94
497.507	-3
497.767	19
498.026	-151
498.286	-52
498.546	160
498.806	19
499.065	58
499.325	-16
499.585	-20
499.845	-31
500.104	-51
500.364	77
500.624	15
500.883	-64
501.143	-33
501.403	16
501.662	103
501.922	3
502.182	-134
502.441	-132
502.701	-63
502.96	49
503.22	-37
503.48	-84
503.739	-9
503.999	-48
504.258	-120
504.518	-67
504.777	40
505.037	-19
505.296	-93
505.556	-98
505.815	57
506.075	130
506.334	-1
506.594	-143
506.853	-78
507.113	-66
507.372	-211
507.632	-137
507.891	-27
508.151	-11
508.41	-166
508.669	-111
508.929	28
509.188	-43
509.447	-82
509.707	-109
509.966	-35
510.226	-26
510.485	-71
510.744	-55
511.004	25
511.263	-61
511.522	-137
511.781	-107
512.041	23
512.3	-31
512.559	-6
512.818	19
513.078	11
513.337	5
513.596	-73
513.855	-91
514.115	40
514.374	-31
514.633	-143
514.892	-156
515.151	-10
515.41	24
515.67	-73
515.929	-106
516.188	-5
516.447	-44
516.706	-137
516.965	-94
517.224	-53
517.483	-56
517.743	-84
518.002	-71
518.261	21
518.52	-22
518.779	-125
519.038	-108
519.297	-44
519.556	-64
519.815	-167
520.074	-163
520.333	-48
520.592	-63
520.851	-153
521.11	-22
521.369	127
521.628	-44
521.887	-135
522.145	-68
522.404	-29
522.663	-37
522.922	-173
523.181	-154
523.44	-25
523.699	12
523.958	-167
524.217	-131
524.475	-111
524.734	-139
524.993	-158
525.252	-86
525.511	-17
525.769	-72
526.028	-149
526.287	-78
526.546	-32
526.805	-65
527.063	-140
527.322	-159
527.581	-54
527.839	-45
528.098	-50
528.357	-44
528.616	-31
528.874	-50
529.133	-92
529.392	-72
529.65	-25
529.909	-46
530.168	-137
530.426	-102
530.685	34
530.943	-6
531.202	-137
531.461	-125
531.719	15
531.978	-37
532.236	-128
532.495	-47
532.753	6
533.012	-80
533.271	-151
533.529	-156
533.788	-55
534.046	-146
534.305	-183
534.563	36
534.822	109
535.08	1
535.338	-105
535.597	-59
535.855	16
536.114	-46
536.372	-150
536.631	-69
536.889	29
537.147	-24
537.406	-211
537.664	-87
537.923	-26
538.181	-12
538.439	-165
538.698	-17
538.956	-15
539.214	-64
539.473	-124
539.731	-63
539.989	10
540.248	-57
540.506	-119
540.764	-124
541.022	-22
541.281	11
541.539	-94
541.797	-146
542.055	-11
542.314	72
542.572	24
542.83	-118
543.088	-7
543.346	-48
543.604	-151
543.863	-58
544.121	89
544.379	-8
544.637	-126
544.895	-12
545.153	110
545.411	-48
545.67	-207
545.928	-165
546.186	-34
546.444	21
546.702	-68
546.96	-43
547.218	17
547.476	-43
547.734	-126
547.992	-72
548.25	22
548.508	-61
548.766	-87
549.024	-74
549.282	-59
549.54	-36
549.798	-57
550.056	-79
550.314	14
550.572	-38
550.83	-178
551.088	-69
551.346	48
551.603	40
551.861	-128
552.119	-31
552.377	71
552.635	-35
552.893	-148
553.151	-159
553.409	-24
553.666	-21
553.924	-123
554.182	-124
554.44	19
554.698	62
554.955	-86
555.213	-85
555.471	30
555.729	-43
555.986	-206
556.244	-93
556.502	101
556.76	-21
557.017	-85
557.275	-34
557.533	89
557.79	40
558.048	-150
558.306	-61
558.563	18
558.821	-78
559.079	-110
559.336	-69
559.594	-11
559.852	-96
560.109	-146
560.367	-45
560.624	4
560.882	-50
561.14	-70
561.397	53
561.655	-30
561.912	-15
562.17	-147
562.427	-71
562.685	-4
562.942	-6
563.2	-129
563.457	-56
563.715	12
563.972	38
564.23	-134
564.487	-139
564.745	-5
565.002	27
565.26	-65
565.517	-69
565.774	14
566.032	32
566.289	-39
566.547	11
566.804	147
567.061	116
567.319	-12
567.576	90
567.833	235
568.091	306
568.348	139
568.605	219
568.863	268
569.12	292
569.377	220
569.635	246
569.892	344
570.149	396
570.406	342
570.664	447
570.921	641
571.178	621
571.435	745
571.693	852
571.95	999
572.207	1014
572.464	1095
572.721	1312
572.979	1534
573.236	1586
573.493	1620
573.75	1774
574.007	2075
574.264	2137
574.521	2211
574.779	2418
575.036	2661
575.293	2782
575.55	2939
575.807	3131
576.064	3380
576.321	3560
576.578	3613
576.835	3812
577.092	4228
577.349	4361
577.606	4337
577.863	4574
578.12	4922
578.377	5122
578.634	5055
578.891	5383
579.148	5625
579.405	5658
579.662	5720
579.919	5987
580.176	6252
580.433	6411
580.69	6449
580.947	6606
581.204	6847
581.461	6925
581.717	6979
581.974	7235
582.231	7374
582.488	7303
582.745	7252
583.002	7443
583.259	7756
583.515	7756
583.772	7638
584.029	7768
584.286	7959
584.543	7812
584.799	7939
585.056	8098
585.313	8242
585.57	8273
585.826	8190
586.083	8344
586.34	8527
586.597	8349
586.853	8244
587.11	8329
587.367	8590
587.623	8585
587.88	8500
588.137	8482
588.393	8551
588.65	8439
588.907	8375
589.163	8466
589.42	8510
589.677	8559
589.933	8487
590.19	8582
590.446	8720
590.703	8667
590.96	8402
591.216	8443
591.473	8517
591.729	8513
591.986	8526
592.242	8543
592.499	8750
592.755	8628
593.012	8441
593.268	8492
593.525	8526
593.781	8620
594.038	8549
594.294	8590
594.551	8597
594.807	8580
595.064	8563
595.32	8483
595.576	8552
595.833	8584
596.089	8449
596.346	8595
596.602	8668
596.858	8680
597.115	8555
597.371	8599
597.628	8605
597.884	8537
598.14	8460
598.397	8597
598.653	8715
598.909	8604
599.166	8441
599.422	8496
599.678	8597
599.934	8600
600.191	8467
600.447	8512
600.703	8527
600.959	8441
601.216	8307
601.472	8376
601.728	8425
601.984	8372
602.241	8368
602.497	8471
602.753	8549
603.009	8484
603.265	8458
603.521	8560
603.778	8624
604.034	8410
604.29	8405
604.546	8472
604.802	8490
605.058	8438
605.314	8431
605.571	8457
605.827	8476
606.083	8463
606.339	8344
606.595	8452
606.851	8520
607.107	8528
607.363	8374
607.619	8391
607.875	8597
608.131	8525
608.387	8260
608.643	8346
608.899	8434
609.155	8344
609.411	8329
609.667	8353
609.923	8344
610.179	8349
610.435	8130
610.691	8164
610.947	8356
611.203	8326
611.459	8261
611.714	8296
611.97	8475
612.226	8370
612.482	8183
612.738	8276
612.994	8451
613.25	8291
613.505	8121
613.761	8108
614.017	8251
614.273	8253
614.529	8105
614.785	8075
615.04	8145
615.296	8117
615.552	8077
615.808	8134
616.063	8224
616.319	8186
616.575	7996
616.831	8058
617.086	8269
617.342	8222
617.598	8054
617.854	8091
618.109	8159
618.365	7935
618.621	7833
618.876	7948
619.132	8070
619.388	7949
619.643	7709
619.899	7807
620.155	7894
620.41	7865
620.666	7745
620.921	7786
621.177	7881
621.433	7876
621.688	7800
621.944	7700
622.199	7707
622.455	7717
622.71	7567
622.966	7643
623.221	7652
623.477	7603
623.732	7586
623.988	7460
624.243	7579
624.499	7560
624.754	7441
625.01	7508
625.265	7603
625.521	7625
625.776	7442
626.032	7470
626.287	7466
626.543	7405
626.798	7322
627.053	7303
627.309	7355
627.564	7255
627.82	7263
628.075	7316
628.33	7261
628.586	7144
628.841	7015
629.096	7136
629.352	7224
629.607	7075
629.862	6995
630.118	7079
630.373	7042
630.628	7079
630.884	6898
631.139	6935
631.394	7133
631.649	7069
631.905	6844
632.16	6876
632.415	7053
632.67	6892
632.926	6674
633.181	6705
633.436	6894
633.691	6756
633.946	6605
634.202	6687
634.457	6719
634.712	6664
634.967	6559
635.222	6543
635.477	6598
635.733	6533
635.988	6449
636.243	6457
636.498	6523
636.753	6522
637.008	6331
637.263	6360
637.518	6456
637.773	6394
638.028	6344
638.283	6312
638.539	6375
638.794	6336
639.049	6196
639.304	6174
639.559	6255
639.814	6220
640.069	6130
640.324	6102
640.579	6112
640.834	6133
641.089	6008
641.344	6050
641.598	6242
641.853	6133
642.108	5948
642.363	5879
642.618	6048
642.873	5944
643.128	5787
643.383	5833
643.638	5882
643.893	5964
644.148	5907
644.402	5820
644.657	5901
644.912	5804
645.167	5812
645.422	5879
645.677	5807
645.931	5872
646.186	5783
646.441	5666
646.696	5705
646.951	5692
647.205	5649
647.46	5642
647.715	5620
647.97	5772
648.224	5892
648.479	5701
648.734	5751
648.989	5696
649.243	5590
649.498	5545
649.753	5550
650.007	5597
650.262	5492
650.517	5492
650.771	5536
651.026	5433
651.281	5278
651.535	5394
651.79	5456
652.045	5487
652.299	5358
652.554	5360
652.809	5439
653.063	5556
653.318	5475
653.572	5352
653.827	5416
654.081	5397
654.336	5270
654.591	5270
654.845	5360
655.1	5312
655.354	5247
655.609	5307
655.863	5430
656.118	5403
656.372	5231
656.627	5233
656.881	5305
657.136	5230
657.39	5115
657.645	5209
657.899	5366
658.153	5257
658.408	5203
658.662	5259
658.917	5216
659.171	5103
659.426	5062
659.68	5108
659.934	5187
660.189	5202
660.443	5078
660.697	5195
660.952	5300
661.206	5178
661.46	5037
661.715	5123
661.969	5219
662.223	5148
662.478	5111
662.732	5166
662.986	5158
663.241	5172
663.495	5060
663.749	5102
664.003	5232
664.258	5161
664.512	5086
664.766	5128
665.02	5219
665.275	5224
665.529	5061
665.783	5127
666.037	5163
666.291	5160
666.546	5075
666.8	5091
667.054	5070
667.308	5149
667.562	4989
667.816	5057
668.071	5183
668.325	5130
668.579	5135
668.833	5173
669.087	5330
669.341	5243
669.595	5155
669.849	5201
670.103	5254
670.357	5210
670.612	5134
670.866	5145
671.12	5257
671.374	5260
671.628	5173
671.882	5132
672.136	5259
672.39	5251
672.644	5072
672.898	5274
673.152	5432
673.406	5367
673.66	5203
673.914	5279
674.168	5371
674.422	5289
674.675	5191
674.929	5271
675.183	5345
675.437	5291
675.691	5242
675.945	5373
676.199	5519
676.453	5390
676.707	5238
676.961	5243
677.214	5376
677.468	5411
677.722	5400
677.976	5371
678.23	5489
678.484	5459
678.737	5359
678.991	5414
679.245	5501
679.499	5437
679.753	5337
680.006	5447
680.26	5585
680.514	5554
680.768	5404
681.021	5535
681.275	5536
681.529	5499
681.783	5440
682.036	5525
682.29	5511
682.544	5503
682.797	5443
683.051	5419
683.305	5549
683.559	5641
683.812	5592
684.066	5639
684.32	5712
684.573	5616
684.827	5621
685.08	5603
685.334	5730
685.588	5638
685.841	5526
686.095	5707
686.348	5674
686.602	5666
686.856	5676
687.109	5636
687.363	5674
687.616	5619
687.87	5520
688.123	5608
688.377	5703
688.63	5756
688.884	5767
689.137	5897
689.391	5922
689.644	5716
689.898	5579
690.151	5637
690.405	5747
690.658	5708
690.912	5641
691.165	5675
691.419	5787
691.672	5780
691.926	5700
692.179	5695
692.432	5781
692.686	5754
692.939	5641
693.193	5675
693.446	5823
693.699	5817
693.953	5797
694.206	5773
694.459	5831
694.713	5900
694.966	5775
695.219	5723
695.473	5791
695.726	5719
695.979	5674
696.233	5781
696.486	5832
696.739	5814
696.992	5685
697.246	5802
697.499	5918
697.752	5705
698.006	5682
698.259	5802
698.512	5770
698.765	5719
699.018	5680
699.272	5770
699.525	5777
699.778	5676
700.031	5636
700.284	5678
700.538	5788
700.791	5743
701.044	5676
701.297	5673
701.55	5709
701.803	5663
702.056	5590
702.31	5681
702.563	5791
702.816	5678
703.069	5532
703.322	5625
703.575	5741
703.828	5750
704.081	5650
704.334	5643
704.587	5701
704.84	5704
705.093	5645
705.346	5689
705.599	5699
705.853	5677
706.106	5691
706.359	5963
706.612	5753
706.865	5681
707.118	5538
707.37	5642
707.623	5795
707.876	5691
708.129	5640
708.382	5721
708.635	5819
708.888	5599
709.141	5436
709.394	5515
709.647	5660
709.9	5524
710.153	5394
710.406	5525
710.658	5628
710.911	5549
711.164	5461
711.417	5420
711.67	5446
711.923	5471
712.176	5364
712.428	5374
712.681	5445
712.934	5448
713.187	5405
713.44	5374
713.692	5458
713.945	5404
714.198	5324
714.451	5261
714.704	5379
714.956	5439
715.209	5448
715.462	5348
715.715	5370
715.967	5331
716.22	5155
716.473	5237
716.725	5367
716.978	5331
717.231	5275
717.484	5282
717.736	5239
717.989	5176
718.242	5138
718.494	5208
718.747	5296
718.999	5246
719.252	5234
719.505	5213
719.757	5203
720.01	5163
720.263	5125
720.515	5118
720.768	5217
721.02	5156
721.273	4959
721.525	4925
721.778	5042
722.031	5117
722.283	4983
722.536	4981
722.788	5074
723.041	4989
723.293	4919
723.546	4895
723.798	4952
724.051	4977
724.303	4934
724.556	4975
724.808	5026
725.061	4943
725.313	4838
725.566	4830
725.818	4857
726.071	4834
726.323	4716
726.575	4744
726.828	4831
727.08	4828
727.333	4704
727.585	4710
727.837	4763
728.09	4796
728.342	4651
728.595	4726
728.847	4900
729.099	4640
729.352	4620
729.604	4621
729.856	4708
730.109	4692
730.361	4605
730.613	4680
730.866	4750
731.118	4588
731.37	4498
731.622	4514
731.875	4555
732.127	4564
732.379	4540
732.631	4623
732.884	4575
733.136	4512
733.388	4401
733.64	4397
733.893	4515
734.145	4449
734.397	4267
734.649	4315
734.901	4431
735.154	4315
735.406	4306
735.658	4352
735.91	4447
736.162	4325
736.414	4198
736.667	4304
736.919	4347
737.171	4213
737.423	4169
737.675	4218
737.927	4296
738.179	4266
738.431	4178
738.684	4114
738.936	4205
739.188	4265
739.44	4074
739.692	4094
739.944	4088
740.196	4110
740.448	4101
740.7	4051
740.952	4090
741.204	4104
741.456	3978
741.708	4004
741.96	4047
742.212	4124
742.464	4075
742.716	3940
742.968	4005
743.22	3917
743.472	3841
743.724	3916
743.976	4081
744.228	4070
744.48	3824
744.732	3853
744.983	3996
745.235	3942
745.487	3886
745.739	3896
745.991	3896
746.243	4022
746.495	3824
746.747	3829
746.999	3905
747.25	3902
747.502	3891
747.754	3932
748.006	3885
748.258	3973
748.51	4011
748.761	3821
749.013	3882
749.265	3959
749.517	3944
749.768	3969
750.02	3969
750.272	3883
750.524	3659
750.776	3645
751.027	3849
751.279	3897
751.531	3627
751.782	3732
752.034	3850
752.286	3711
752.538	3579
752.789	3681
753.041	3773
753.293	3735
753.544	3653
753.796	3685
754.048	3752
754.299	3753
754.551	3673
754.803	3585
755.054	3629
755.306	3696
755.558	3550
755.809	3588
756.061	3699
756.312	3590
756.564	3589
756.816	3624
757.067	3600
757.319	3582
757.57	3544
757.822	3590
758.073	3632
758.325	3588
758.577	3488
758.828	3479
759.08	3657
759.331	3658
759.583	3421
759.834	3474
760.086	3448
760.337	3425
760.589	3369
760.84	3378
761.092	3460
761.343	3435
761.595	3293
761.846	3448
762.097	3454
762.349	3390
762.6	3227
762.852	3351
763.103	3468
763.355	3317
763.606	3239
763.857	3400
764.109	3497
764.36	3387
764.612	3275
764.863	3360
765.114	3369
765.366	3238
765.617	3140
765.868	3219
766.12	3389
766.371	3349
766.622	3185
766.874	3266
767.125	3377
767.376	3241
767.628	3139
767.879	3190
768.13	3275
768.381	3250
768.633	3235
768.884	3216
769.135	3302
769.386	3242
769.638	3159
769.889	3166
770.14	3211
770.391	3096
770.643	3047
770.894	3054
771.145	3180
771.396	3082
771.647	2971
771.899	3085
772.15	3169
772.401	3096
772.652	2943
772.903	2993
773.154	3383
773.406	3568
773.657	3036
773.908	2968
774.159	3064
774.41	3109
774.661	2945
774.912	2975
775.163	3133
775.414	3123
775.666	2873
775.917	2878
776.168	2938
776.419	2931
776.67	2842
776.921	2840
777.172	2903
777.423	2932
777.674	2942
777.925	2933
778.176	2859
778.427	2880
778.678	2794
778.929	2821
779.18	2948
779.431	2865
779.682	2813
779.933	2816
780.184	2863
780.435	2846
780.686	2808
780.937	2829
781.188	2859
781.439	2930
781.69	2865
781.941	2827
782.191	2794
782.442	2789
782.693	2701
782.944	2694
783.195	2781
783.446	2789
783.697	2813
783.948	2701
784.199	2707
784.449	2695
784.7	2707
784.951	2703
785.202	2839
785.453	2805
785.704	2584
785.954	2529
786.205	2613
786.456	2564
786.707	2498
786.958	2588
787.208	2691
787.459	2630
787.71	2626
787.961	2616
788.211	2647
788.462	2623
788.713	2579
788.964	2558
789.214	2649
789.465	2673
789.716	2591
789.967	2576
790.217	2559
790.468	2528
790.719	2451
790.969	2488
791.22	2538
791.471	2604
791.721	2639
791.972	2513
792.223	2578
792.473	2507
792.724	2496
792.975	2473
793.225	2523
793.476	2497
793.726	2411
793.977	2466
794.228	2582
794.478	2476
794.729	2411
794.979	2517
795.23	2553
795.481	2467
795.731	2354
795.982	2423
796.232	2403
796.483	2376
796.733	2341
796.984	2433
797.234	2440
797.485	2445
797.735	2296
797.986	2325
798.236	2413
798.487	2334
798.737	2361
798.988	2435
799.238	2468
799.489	2318
799.739	2231
799.99	2291
800.24	2427
800.491	2467
800.741	2329
800.991	2269
801.242	2328
801.492	2335
801.743	2243
801.993	2473
802.244	2695
802.494	2312
802.744	2250
802.995	2245
803.245	2284
803.495	2249
803.746	2188
803.996	2290
804.246	2268
804.497	2268
804.747	2144
804.997	2232
805.248	2228
805.498	2173
805.748	2168
805.999	2076
806.249	2164
806.499	2167
806.75	2065
807	2105
807.25	2215
807.5	2147
807.751	2147
808.001	2187
808.251	2199
808.501	2287
808.752	2264
809.002	2183
809.252	2149
809.502	2078
809.752	2060
810.003	2024
810.253	2092
810.503	2106
810.753	2149
811.003	2169
811.254	2164
811.504	2091
811.754	2090
812.004	2112
812.254	2340
812.504	2165
812.754	2042
813.005	2047
813.255	2119
813.505	2057
813.755	2009
814.005	2079
814.255	2057
814.505	2028
814.755	1922
815.005	1933
815.255	2055
815.505	1994
815.756	2046
816.006	2004
816.256	1998
816.506	1973
816.756	1911
817.006	1951
817.256	2032
817.506	1991
817.756	1927
818.006	1923
818.256	1952
818.506	1998
818.756	1884
819.006	1896
819.256	1984
819.506	1915
819.756	1833
820.006	1907
820.255	1977
820.505	1983
820.755	1848
821.005	1847
821.255	1947
821.505	1925
821.755	1846
822.005	1938
822.255	1994
822.505	1887
822.755	1918
823.004	1787
823.254	1813
823.504	1908
823.754	1908
824.004	1848
824.254	1940
824.504	1916
824.753	1936
825.003	1935
825.253	1992
825.503	1858
825.753	1817
826.002	1879
826.252	2055
826.502	1867
826.752	1786
827.002	1811
827.251	1874
827.501	1811
827.751	1756
828.001	1784
828.25	1894
828.5	1750
828.75	1692
829	1787
829.249	1919
829.499	1735
829.749	1709
829.998	1774
830.248	1806
830.498	1701
830.748	1690
830.997	1742
831.247	1811
831.497	1844
831.746	1744
831.996	1823
832.246	1941
832.495	1948
832.745	1658
832.994	1664
833.244	1825
833.494	1735
833.743	1649
833.993	1716
834.243	1762
834.492	1768
834.742	1749
834.991	1710
835.241	1886
835.49	1692
835.74	1569
835.99	1652
836.239	1747
836.489	1794
836.738	1684
836.988	1565
837.237	1694
837.487	1783
837.736	1642
837.986	1623
838.235	1686
838.485	1633
838.734	1577
838.984	1691
839.233	1668
839.483	1562
839.732	1519
839.982	1621
840.231	1682
840.481	1650
840.73	1529
840.979	1603
841.229	1618
841.478	1576
841.728	1470
841.977	1461
842.227	1527
842.476	1496
842.725	1470
842.975	1528
843.224	1634
843.474	1649
843.723	1543
843.972	1544
844.222	1568
844.471	1649
844.72	1535
844.97	1512
845.219	1608
845.468	1593
845.718	1518
845.967	1547
846.216	1607
846.466	1638
846.715	1481
846.964	1496
847.214	1503
847.463	1461
847.712	1468
847.961	1410
848.211	1491
848.46	1497
848.709	1451
848.958	1433
849.208	1481
849.457	1454
849.706	1463
849.955	1448
850.205	1425
850.454	1539
850.703	1573
850.952	1513
851.201	1549
851.451	1466
851.7	1458
851.949	1363
852.198	1469
852.447	1432
852.696	1348
852.946	1391
853.195	1495
853.444	1479
853.693	1294
853.942	1303
854.191	1416
854.44	1463
854.689	1369
854.939	1305
855.188	1299
855.437	1331
855.686	1313
855.935	1342
856.184	1399
856.433	1441
856.682	1369
856.931	1344
857.18	1365
857.429	1293
857.678	1251
857.927	1299
858.176	1331
858.425	1256
858.674	1169
858.924	1275
859.173	1296
859.422	1307
859.671	1206
859.92	1252
860.169	1276
860.417	1314
860.666	1231
860.915	1191
861.164	1261
861.413	1209
861.662	1159
861.911	1218
862.16	1346
862.409	1283
862.658	1135
862.907	1192
863.156	1296
863.405	1284
863.654	1149
863.903	1100
864.151	1206
864.4	1220
864.649	1163
864.898	1217
865.147	1281
865.396	1279
865.645	1117
865.894	1172
866.142	1323
866.391	1215
866.64	1098
866.889	1176
867.138	1331
867.387	1204
867.635	1113
867.884	1180
868.133	1251
868.382	1159
868.631	1032
868.879	1050
869.128	1123
869.377	1128
869.626	1084
869.874	1101
870.123	1212
870.372	1162
870.621	1017
870.869	1053
871.118	1155
871.367	1143
871.616	1034
871.864	1128
872.113	1175
872.362	1150
872.61	1080
872.859	1120
873.108	1176
873.357	1074
873.605	960
873.854	986
874.103	1063
874.351	1068
874.6	1033
874.848	1065
875.097	1088
875.346	1119
875.594	1009
875.843	1077
876.092	1204
876.34	1087
876.589	980
876.837	900
877.086	974
877.335	1052
877.583	1010
877.832	1045
878.08	1164
878.329	1059
878.578	946
878.826	984
879.075	1067
879.323	1053
879.572	973
879.82	1093
880.069	1045
880.317	1047
880.566	918
880.814	1036
881.063	1153
881.311	1017
881.56	1039
881.808	967
882.057	1035
882.305	985
882.554	997
882.802	920
883.051	945
883.299	941
883.548	903
883.796	999
884.045	1010
884.293	927
884.541	815
884.79	819
885.038	917
885.287	925
885.535	931
885.783	963
886.032	905
886.28	883
886.529	830
886.777	881
887.025	1020
887.274	906
887.522	847
887.77	848
888.019	856
888.267	835
888.516	775
888.764	817
889.012	913
889.261	897
889.509	805
889.757	813
890.005	837
890.254	797
890.502	819
890.75	1020
890.999	1022
891.247	922
891.495	866
891.743	834
891.992	970
892.24	886
892.488	764
892.737	778
892.985	869
893.233	851
893.481	811
893.729	777
893.978	951
894.226	944
894.474	773
894.722	776
894.97	809
895.219	799
895.467	818
895.715	840
895.963	813
896.211	766
896.46	653
896.708	767
896.956	839
897.204	904
897.452	834
897.7	752
897.948	816
898.197	798
898.445	744
898.693	733
898.941	821
899.189	798
899.437	760
899.685	832
899.933	767
900.181	771
900.43	686
900.678	709
900.926	771
901.174	749
901.422	683
901.67	723
901.918	804
902.166	748
902.414	609
902.662	653
902.91	765
903.158	744
903.406	683
903.654	687
903.902	732
904.15	706
904.398	577
904.646	689
904.894	780
905.142	778
905.39	722
905.638	666
905.886	674
906.134	663
906.382	658
906.63	618
906.878	727
907.126	698
907.374	616
907.622	638
907.869	744
908.117	716
908.365	631
908.613	633
908.861	640
909.109	589
909.357	571
909.605	626
909.853	702
910.1	642
910.348	473
910.596	526
910.844	711
911.092	740
911.34	626
911.588	628
911.835	678
912.083	650
912.331	644
912.579	664
912.827	826
913.075	685
913.322	535
913.57	540
913.818	701
914.066	617
914.313	541
914.561	622
914.809	645
915.057	606
915.305	571
915.552	561
915.8	663
916.048	567
916.296	506
916.543	605
916.791	688
917.039	612
917.286	502
917.534	535
917.782	650
918.03	564
918.277	450
918.525	446
918.773	565
919.02	568
919.268	504
919.516	499
919.763	510
920.011	536
920.259	446
920.506	540
920.754	631
921.002	623
921.249	576
921.497	531
921.745	543
921.992	558
922.24	437
922.487	563
922.735	740
922.983	627
923.23	525
923.478	475
923.725	561
923.973	568
924.221	542
924.468	583
924.716	543
924.963	519
925.211	482
925.458	538
925.706	639
925.953	649
926.201	462
926.448	467
926.696	570
926.944	528
927.191	456
927.439	458
927.686	483
927.934	517
928.181	405
928.429	408
928.676	472
928.923	408
929.171	346
929.418	509
929.666	574
929.913	550
930.161	364
930.408	397
930.656	467
930.903	498
931.151	363
931.398	409
931.645	537
931.893	459
932.14	416
932.388	421
932.635	573
932.882	623
933.13	477
933.377	419
933.625	489
933.872	415
934.119	355
934.367	401
934.614	406
934.861	382
935.109	367
935.356	420
935.603	453
935.851	416
936.098	357
936.345	454
936.593	463
936.84	424
937.087	305
937.335	365
937.582	423
937.829	439
938.077	407
938.324	397
938.571	458
938.818	376
939.066	321
939.313	316
939.56	434
939.807	441
940.055	316
940.302	357
940.549	525
940.796	451
941.044	393
941.291	384
941.538	536
941.785	418
942.033	353
942.28	428
942.527	471
942.774	447
943.021	275
943.269	319
943.516	429
943.763	435
944.01	349
944.257	417
944.504	489
944.752	469
944.999	416
945.246	315
945.493	393
945.74	392
945.987	304
946.234	354
946.482	455
946.729	350
946.976	293
947.223	308
947.47	479
947.717	436
947.964	443
948.211	394
948.458	457
948.705	376
948.952	261
949.2	347
949.447	491
949.694	484
949.941	322
950.188	301
950.435	329
950.682	363
950.929	238
951.176	280
951.423	442
951.67	404
951.917	363
952.164	380
952.411	430
952.658	462
952.905	297
953.152	249
953.399	377
953.646	373
953.893	253
954.14	279
954.387	327
954.634	319
954.881	282
955.128	339
955.375	320
955.622	332
955.869	344
956.115	309
956.362	368
956.609	348
956.856	273
957.103	255
957.35	348
957.597	380
957.844	313
958.091	301
958.338	369
958.585	307
958.831	147
959.078	211
959.325	375
959.572	271
959.819	189
960.066	163
960.313	296
960.559	290
960.806	168
961.053	206
961.3	358
961.547	366
961.794	167
962.04	347
962.287	357
962.534	208
962.781	192
963.028	268
963.274	393
963.521	285
963.768	206
964.015	245
964.262	413
964.508	243
964.755	174
965.002	199
965.249	252
965.495	192
965.742	137
965.989	168
966.236	299
966.482	224
966.729	154
966.976	144
967.222	220
967.469	229
967.716	164
967.963	166
968.209	259
968.456	218
968.703	108
968.949	201
969.196	363
969.443	373
969.689	142
969.936	116
970.183	233
970.429	157
970.676	128
970.923	211
971.169	258
971.416	191
971.663	145
971.909	203
972.156	277
972.402	255
972.649	189
972.896	216
973.142	223
973.389	240
973.635	155
973.882	265
974.129	318
974.375	219
974.622	117
974.868	109
975.115	197
975.361	155
975.608	141
975.855	263
976.101	270
976.348	198
976.594	144
976.841	213
977.087	197
977.334	225
977.58	101
977.827	108
978.073	241
978.32	222
978.566	91
978.813	171
979.059	217
979.306	180
979.552	83
979.799	165
980.045	165
980.292	158
980.538	75
980.785	77
981.031	113
981.278	96
981.524	50
981.771	179
982.017	315
982.263	217
982.51	99
982.756	160
983.003	217
983.249	155
983.495	84
983.742	76
983.988	154
984.235	178
984.481	66
984.727	76
984.974	207
985.22	204
985.467	129
985.713	123
985.959	232
986.206	215
986.452	127
986.698	160
986.945	170
987.191	205
987.437	203
987.684	167
987.93	314
988.176	210
988.423	39
988.669	115
988.915	279
989.162	132
989.408	43
989.654	107
989.901	131
990.147	138
990.393	137
990.639	177
990.886	216
991.132	258
991.378	211
991.625	337
991.871	284
992.117	192
992.363	123
992.61	163
992.856	263
993.102	133
993.348	71
993.594	98
993.841	143
994.087	287
994.333	139
994.579	103
994.826	168
995.072	174
995.318	-24
995.564	33
995.81	156
996.057	126
996.303	31
996.549	33
996.795	137
997.041	140
997.287	90
997.534	90
997.78	142
998.026	143
998.272	20
998.518	17
998.764	171
999.01	189
999.256	94
999.503	63
999.749	90
999.995	46
1000.241	17
1000.487	95
1000.733	143
1000.979	101
1001.225	78
1001.471	149
1001.718	188
1001.964	220
1002.21	44
1002.456	66
1002.702	225
1002.948	135
1003.194	57
1003.44	42
1003.686	152
1003.932	96
1004.178	21
1004.424	83
1004.67	249
1004.916	216
1005.162	109
1005.408	53
1005.654	196
1005.9	35
1006.146	-5
1006.392	58
1006.638	120
1006.884	86
1007.13	4
1007.376	-13
1007.622	167
1007.868	189
1008.114	62
1008.36	127
1008.606	152
1008.852	162
1009.098	116
1009.344	141
1009.59	119
1009.836	-13
1010.082	-69
1010.328	34
1010.574	118
1010.82	25
1011.065	-46
1011.311	-33
1011.557	77
1011.803	44
1012.049	-11
1012.295	50
1012.541	72
1012.787	79
1013.033	-66
1013.278	-80
1013.524	80
1013.77	148
1014.016	51
1014.262	59
1014.508	151
1014.754	-7
1015	-27
1015.245	153
1015.491	158
1015.737	117
1015.983	-31
1016.229	-62
1016.475	69
1016.72	198
1016.966	206
1017.212	82
1017.458	163
1017.704	84
1017.949	-49
1018.195	113
1018.441	221
1018.687	175
1018.933	18
1019.178	-4
1019.424	150
1019.67	153
1019.916	-29
1020.161	25
1020.407	90
1020.653	26
1020.899	-30
1021.144	33
1021.39	131
1021.636	8
1021.882	-97
1022.127	4
1022.373	173
1022.619	124
1022.865	11
1023.11	27
1023.356	154
1023.602	65
1023.847	-6
1024.093	44
1024.339	17
1024.584	-13
1024.83	-9
1025.076	6
1025.321	151
1025.567	86
1025.813	-28
1026.058	56
1026.304	115
1026.55	24
1026.795	20
1027.041	22
1027.287	61
1027.532	104
1027.778	71
1028.024	24
1028.269	56
1028.515	-21
1028.76	-78
1029.006	21
1029.252	123
1029.497	51
1029.743	27
1029.989	-31
1030.234	102
1030.48	165
1030.725	-25
1030.971	9
1031.216	150
1031.462	49
1031.708	-97
1031.953	-45
1032.199	43
1032.444	59
1032.69	11
1032.935	-9
1033.181	127
1033.426	11
1033.672	-140
1033.918	-77
1034.163	28
1034.409	3
1034.654	-36
1034.9	47
1035.145	105
1035.391	23
1035.636	-84
1035.882	0
1036.127	12
1036.373	-37
1036.618	-128
1036.864	-22
1037.109	105
1037.355	-4
1037.6	-73
1037.845	-31
1038.091	153
1038.336	115
1038.582	131
1038.827	212
1039.073	48
1039.318	-47
1039.564	-126
1039.809	-44
1040.055	133
1040.3	130
1040.545	-37
1040.791	-47
1041.036	12
1041.282	45
1041.527	91
1041.772	-81
1042.018	-3
1042.263	30
1042.509	-127
1042.754	-78
1042.999	46
1043.245	27
1043.49	-137
1043.736	-64
1043.981	24
1044.226	31
1044.472	-2
1044.717	6
1044.962	110
1045.208	28
1045.453	-196
1045.698	-113
1045.944	91
1046.189	45
1046.434	-49
1046.68	-43
1046.925	136
1047.17	-11
1047.416	-198
1047.661	-83
1047.906	57
1048.152	33
1048.397	-44
1048.642	-45
1048.887	138
1049.133	134
1049.378	-48
1049.623	-64
1049.869	53
1050.114	-17
1050.359	-88
1050.604	-20
1050.85	134
1051.095	-1
1051.34	-90
1051.585	-43
1051.831	151
1052.076	20
1052.321	-189
1052.566	-72
1052.812	122
1053.057	16
1053.302	-69
1053.547	25
1053.792	79
1054.038	62
1054.283	-126
1054.528	-53
1054.773	19
1055.018	21
1055.264	-79
1055.509	-112
1055.754	8
1055.999	-43
1056.244	-126
1056.49	-55
1056.735	33
1056.98	-16
1057.225	-126
1057.47	59
1057.715	-8
1057.96	-89
1058.206	-130
1058.451	-23
1058.696	110
1058.941	63
1059.186	-125
1059.431	-104
1059.676	99
1059.922	40
1060.167	126
1060.412	279
1060.657	60
1060.902	2
1061.147	-161
1061.392	-76
1061.637	56
1061.882	-9
1062.127	-162
1062.373	-159
1062.618	119
1062.863	148
1063.108	-54
1063.353	-133
1063.598	-37
1063.843	-47
1064.088	-123
1064.333	-103
1064.578	48
1064.823	57
1065.068	-169
1065.313	-91
1065.558	50
1065.803	50
1066.048	-157
1066.293	-140
1066.538	78
1066.783	7
1067.028	-174
1067.273	-142
1067.518	36
1067.763	-25
1068.008	-181
1068.253	-116
1068.498	71
1068.743	13
1068.988	-152
1069.233	-140
1069.478	68
1069.723	139
1069.968	-59
1070.213	-19
1070.458	85
1070.703	-16
1070.948	-192
1071.193	-91
1071.438	57
1071.683	76
1071.928	-49
1072.173	-61
1072.418	26
1072.663	-24
1072.908	-156
1073.152	-93
1073.397	76
1073.642	-30
1073.887	-88
1074.132	43
1074.377	32
1074.622	-16
1074.867	-137
1075.112	-69
1075.357	118
1075.601	-5
1075.846	-56
1076.091	35
1076.336	87
1076.581	-63
1076.826	-171
1077.071	-70
1077.315	179
1077.56	103
1077.805	-110
1078.05	-71
1078.295	-17
1078.54	-55
1078.785	-177
1079.029	-109
1079.274	78
1079.519	-60
1079.764	-154
1080.009	-48
1080.253	20
1080.498	-73
1080.743	-213
1080.988	-61
1081.233	140
1081.478	85
1081.722	-105
1081.967	-8
1082.212	151
1082.457	50
1082.701	-112
1082.946	-73
1083.191	57
1083.436	-68
1083.681	-205
1083.925	-103
1084.17	-2
1084.415	20
1084.66	-187
1084.904	-84
1085.149	14
1085.394	-42
1085.639	-210
1085.883	-94
1086.128	143
1086.373	152
1086.617	-81
1086.862	-146
1087.107	-13
1087.352	-71
1087.596	-168
1087.841	-27
1088.086	30
1088.33	4
1088.575	-220
1088.82	-106
1089.064	72
1089.309	-70
1089.554	-183
1089.798	-145
1090.043	39
1090.288	-26
1090.533	-196
1090.777	-132
1091.022	15
1091.266	56
1091.511	-108
1091.756	-18
1092	116
1092.245	89
1092.49	-145
1092.734	-92
1092.979	85
1093.224	-25
1093.468	-188
1093.713	-116
1093.957	28
1094.202	-52
1094.447	-223
1094.691	-89
1094.936	66
1095.181	-1
1095.425	-182
1095.67	-145
1095.914	42
1096.159	16
1096.403	-142
1096.648	-49
1096.893	74
1097.137	-82
1097.382	-230
1097.626	-158
1097.871	3
1098.115	-24
1098.36	-197
1098.605	-113
1098.849	-36
1099.094	-111
1099.338	-188
1099.583	-88
1099.827	140
1100.072	44
1100.316	-163
1100.561	-111
1100.805	55
1101.05	19
1101.294	-177
1101.539	-155
1101.783	7
1102.028	3
1102.273	-152
1102.517	-78
1102.761	57
1103.006	-67
1103.25	-278
1103.495	-162
1103.739	55
1103.984	110
1104.228	-99
1104.473	-22
1104.717	50
1104.962	-8
1105.206	-133
1105.451	-142
1105.695	10
1105.94	-6
1106.184	-145
1106.429	-93
1106.673	-7
1106.917	70
1107.162	-161
1107.406	-23
1107.651	133
1107.895	-78
1108.14	-188
1108.384	-73
1108.628	123
1108.873	99
1109.117	-129
1109.362	-123
1109.606	-29
1109.85	-46
1110.095	-177
1110.339	-93
1110.584	95
1110.828	35
1111.072	-96
1111.317	-123
1111.561	-9
1111.806	-35
1112.05	-183
1112.294	-85
1112.539	32
1112.783	-6
1113.027	-125
1113.272	-111
1113.516	-19
1113.76	-49
1114.005	-150
1114.249	-81
1114.493	73
1114.738	98
1114.982	-48
1115.226	-73
1115.471	19
1115.715	-13
1115.959	-184
1116.204	-166
1116.448	11
1116.692	-90
1116.937	-174
1117.181	-16
1117.425	-25
1117.67	-89
1117.914	-151
1118.158	-89
1118.402	135
1118.647	62
1118.891	-80
1119.135	-14
1119.38	108
1119.624	11
1119.868	-135
1120.112	-157
1120.357	-57
1120.601	-115
1120.845	-202
1121.089	-130
1121.334	44
