Data from HR4C21111__6__09-40-42-565.txt Node

Date: Mon Feb 22 09:40:42 IST 2021
User: Kapil
Spectrometer: HR4C2111
Trigger mode: 4
Integration Time (sec): 2.300000E0
Scans to average: 1
Electric dark correction enabled: true
Nonlinearity correction enabled: false
Boxcar width: 0
XAxis mode: Wavelengths
Number of Pixels in Spectrum: 3648
>>>>>Begin Spectral Data<<<<<
189.472	-454.54
189.745	-454.54
190.017	-454.54
190.289	-455.54
190.561	-304.54
190.834	-38.54
191.106	-114.54
191.378	27.46
191.65	13.46
191.923	-133.54
192.195	-97.54
192.467	119.46
192.739	110.46
193.011	-19.54
193.284	81.46
193.556	168.46
193.828	-15.54
194.1	-101.54
194.372	-111.54
194.644	58.46
194.916	76.46
195.188	-143.54
195.46	-68.54
195.732	67.46
196.004	4.46
196.276	-96.54
196.548	-48.54
196.82	77.46
197.092	61.46
197.364	-131.54
197.636	-93.54
197.908	14.46
198.18	-36.54
198.452	-79.54
198.724	-41.54
198.996	61.46
199.268	81.46
199.54	-27.54
199.811	-111.54
200.083	99.46
200.355	12.46
200.627	-189.54
200.899	-63.54
201.171	58.46
201.442	-63.54
201.714	-190.54
201.986	-109.54
202.258	52.46
202.529	114.46
202.801	14.46
203.073	84.46
203.345	202.46
203.616	22.46
203.888	-135.54
204.16	-136.54
204.431	95.46
204.703	-12.54
204.974	-151.54
205.246	-9.54
205.518	189.46
205.789	1.46
206.061	-135.54
206.332	-94.54
206.604	28.46
206.876	98.46
207.147	130.46
207.419	30.46
207.69	144.46
207.962	-30.54
208.233	-185.54
208.505	2.46
208.776	177.46
209.047	82.46
209.319	-120.54
209.59	-76.54
209.862	126.46
210.133	44.46
210.404	-147.54
210.676	-110.54
210.947	72.46
211.219	64.46
211.49	-117.54
211.761	-56.54
212.033	39.46
212.304	-19.54
212.575	-164.54
212.846	-83.54
213.118	25.46
213.389	-52.54
213.66	-96.54
213.931	-33.54
214.203	38.46
214.474	-25.54
214.745	-124.54
215.016	123.46
215.287	417.46
215.559	69.46
215.83	-112.54
216.101	-55.54
216.372	9.46
216.643	85.46
216.914	32.46
217.185	-60.54
217.456	168.46
217.727	21.46
217.998	-146.54
218.269	-48.54
218.54	36.46
218.811	-6.54
219.082	-101.54
219.353	-87.54
219.624	-14.54
219.895	-38.54
220.166	-133.54
220.437	-101.54
220.708	89.46
220.979	2.46
221.25	-126.54
221.521	-81.54
221.792	32.46
222.063	79.46
222.334	42.46
222.604	177.46
222.875	178.46
223.146	110.46
223.417	-158.54
223.688	-34.54
223.958	115.46
224.229	-45.54
224.5	-191.54
224.771	-62.54
225.041	100.46
225.312	54.46
225.583	-116.54
225.854	-55.54
226.124	96.46
226.395	2.46
226.666	-138.54
226.936	-94.54
227.207	66.46
227.478	-53.54
227.748	-105.54
228.019	49.46
228.289	247.46
228.56	-29.54
228.831	-50.54
229.101	47.46
229.372	72.46
229.642	-11.54
229.913	-158.54
230.183	-116.54
230.454	-2.54
230.724	-1.54
230.995	-85.54
231.265	-59.54
231.536	65.46
231.806	64.46
232.076	-90.54
232.347	-110.54
232.617	36.46
232.888	31.46
233.158	-51.54
233.428	-107.54
233.699	-4.54
233.969	-35.54
234.239	-141.54
234.51	-89.54
234.78	42.46
235.05	-4.54
235.321	-130.54
235.591	-71.54
235.861	75.46
236.131	-41.54
236.402	-172.54
236.672	-84.54
236.942	47.46
237.212	47.46
237.483	-69.54
237.753	-12.54
238.023	178.46
238.293	28.46
238.563	-73.54
238.833	-98.54
239.103	75.46
239.374	-3.54
239.644	-137.54
239.914	-15.54
240.184	155.46
240.454	12.46
240.724	-155.54
240.994	-46.54
241.264	39.46
241.534	67.46
241.804	-22.54
242.074	-83.54
242.344	-15.54
242.614	-45.54
242.884	-165.54
243.154	-112.54
243.424	42.46
243.694	63.46
243.964	-82.54
244.234	-66.54
244.503	117.46
244.773	13.46
245.043	-215.54
245.313	-126.54
245.583	135.46
245.853	95.46
246.123	-161.54
246.392	-112.54
246.662	6.46
246.932	-3.54
247.202	-165.54
247.471	-49.54
247.741	266.46
248.011	103.46
248.281	-129.54
248.55	-82.54
248.82	66.46
249.09	1.46
249.359	-74.54
249.629	-67.54
249.899	48.46
250.168	61.46
250.438	-36.54
250.708	-101.54
250.977	81.46
251.247	71.46
251.516	-104.54
251.786	-50.54
252.055	135.46
252.325	22.46
252.595	-108.54
252.864	-66.54
253.134	52.46
253.403	-27.54
253.673	-154.54
253.942	-98.54
254.212	52.46
254.481	8.46
254.75	-140.54
255.02	-85.54
255.289	74.46
255.559	-12.54
255.828	-117.54
256.097	-26.54
256.367	21.46
256.636	-68.54
256.906	-135.54
257.175	-9.54
257.444	248.46
257.714	62.46
257.983	-65.54
258.252	-42.54
258.521	24.46
258.791	52.46
259.06	-102.54
259.329	-51.54
259.598	62.46
259.868	6.46
260.137	-101.54
260.406	14.46
260.675	85.46
260.944	9.46
261.214	-130.54
261.483	-42.54
261.752	185.46
262.021	17.46
262.29	-182.54
262.559	-125.54
262.828	29.46
263.097	-41.54
263.366	-181.54
263.635	-64.54
263.905	141.46
264.174	16.46
264.443	-200.54
264.712	-109.54
264.981	38.46
265.25	-33.54
265.519	-128.54
265.788	-120.54
266.057	44.46
266.325	59.46
266.594	-47.54
266.863	-114.54
267.132	26.46
267.401	7.46
267.67	-181.54
267.939	-139.54
268.208	22.46
268.477	63.46
268.745	-120.54
269.014	-71.54
269.283	144.46
269.552	33.46
269.821	-115.54
270.089	-8.54
270.358	-4.54
270.627	-27.54
270.896	-119.54
271.164	-135.54
271.433	37.46
271.702	96.46
271.971	-141.54
272.239	-126.54
272.508	28.46
272.777	-29.54
273.045	-25.54
273.314	-28.54
273.583	110.46
273.851	3.46
274.12	-146.54
274.388	-132.54
274.657	7.46
274.926	1.46
275.194	-136.54
275.463	-65.54
275.731	30.46
276	193.46
276.268	384.46
276.537	-78.54
276.805	34.46
277.074	48.46
277.342	-153.54
277.611	-96.54
277.879	108.46
278.148	34.46
278.416	-124.54
278.684	-104.54
278.953	-9.54
279.221	-32.54
279.49	-185.54
279.758	-79.54
280.026	5.46
280.295	-5.54
280.563	-128.54
280.831	999.46
281.1	2420.46
281.368	240.46
281.636	-76.54
281.904	-105.54
282.173	-9.54
282.441	-38.54
282.709	-82.54
282.977	34.46
283.246	48.46
283.514	-20.54
283.782	-59.54
284.05	41.46
284.318	81.46
284.587	-13.54
284.855	-111.54
285.123	-35.54
285.391	72.46
285.659	60.46
285.927	-128.54
286.195	-47.54
286.463	62.46
286.732	-6.54
287	-98.54
287.268	-41.54
287.536	55.46
287.804	-28.54
288.072	-146.54
288.34	-78.54
288.608	75.46
288.876	-20.54
289.144	-104.54
289.412	-3.54
289.68	70.46
289.948	-19.54
290.215	-97.54
290.483	-82.54
290.751	105.46
291.019	96.46
291.287	-158.54
291.555	-113.54
291.823	44.46
292.091	-3.54
292.358	-83.54
292.626	-19.54
292.894	86.46
293.162	55.46
293.43	-96.54
293.697	-65.54
293.965	44.46
294.233	-29.54
294.501	-154.54
294.768	-59.54
295.036	81.46
295.304	41.46
295.572	-129.54
295.839	-93.54
296.107	128.46
296.375	7.46
296.642	-118.54
296.91	-115.54
297.178	61.46
297.445	184.46
297.713	108.46
297.98	-83.54
298.248	-31.54
298.516	-35.54
298.783	-109.54
299.051	-101.54
299.318	37.46
299.586	-13.54
299.853	-85.54
300.121	-82.54
300.388	50.46
300.656	-13.54
300.923	-152.54
301.191	-41.54
301.458	55.46
301.726	-11.54
301.993	-127.54
302.26	-81.54
302.528	47.46
302.795	7.46
303.063	-74.54
303.33	-49.54
303.597	48.46
303.865	45.46
304.132	-116.54
304.399	-136.54
304.667	-18.54
304.934	37.46
305.201	-95.54
305.469	-12.54
305.736	51.46
306.003	46.46
306.27	-39.54
306.538	-80.54
306.805	13.46
307.072	-29.54
307.339	-97.54
307.606	-38.54
307.874	170.46
308.141	77.46
308.408	-119.54
308.675	-109.54
308.942	-41.54
309.209	-65.54
309.477	-128.54
309.744	-89.54
310.011	32.46
310.278	38.46
310.545	-25.54
310.812	-41.54
311.079	152.46
311.346	206.46
311.613	61.46
311.88	-13.54
312.147	-48.54
312.414	-20.54
312.681	-93.54
312.948	-30.54
313.215	119.46
313.482	93.46
313.749	-78.54
314.016	-178.54
314.283	-42.54
314.55	73.46
314.817	-66.54
315.083	-107.54
315.35	-67.54
315.617	-129.54
315.884	-124.54
316.151	58.46
316.418	159.46
316.684	-15.54
316.951	-164.54
317.218	-88.54
317.485	-5.54
317.752	-61.54
318.018	-106.54
318.285	-7.54
318.552	31.46
318.819	-47.54
319.085	-122.54
319.352	-41.54
319.619	55.46
319.885	-14.54
320.152	-183.54
320.419	-86.54
320.685	39.46
320.952	-14.54
321.219	-66.54
321.485	59.46
321.752	7.46
322.019	-42.54
322.285	37.46
322.552	4.46
322.818	138.46
323.085	-8.54
323.351	-109.54
323.618	-1.54
323.884	55.46
324.151	-70.54
324.417	-31.54
324.684	-65.54
324.95	-34.54
325.217	-115.54
325.483	-179.54
325.75	-25.54
326.016	21.46
326.283	-16.54
326.549	-178.54
326.815	-63.54
327.082	114.46
327.348	11.46
327.615	-92.54
327.881	-11.54
328.147	137.46
328.414	147.46
328.68	22.46
328.946	-26.54
329.212	53.46
329.479	10.46
329.745	-90.54
330.011	-101.54
330.278	23.46
330.544	-21.54
330.81	-25.54
331.076	-32.54
331.342	-20.54
331.609	-20.54
331.875	-87.54
332.141	-95.54
332.407	30.46
332.673	6.46
332.94	-16.54
333.206	-48.54
333.472	49.46
333.738	84.46
334.004	-102.54
334.27	-16.54
334.536	9.46
334.802	-21.54
335.068	-81.54
335.334	18.46
335.6	32.46
335.866	-31.54
336.132	-163.54
336.398	-80.54
336.664	-14.54
336.93	-37.54
337.196	-73.54
337.462	-2.54
337.728	38.46
337.994	-42.54
338.26	-80.54
338.526	-32.54
338.792	-30.54
339.058	-25.54
339.324	-140.54
339.59	-15.54
339.856	43.46
340.121	-54.54
340.387	-110.54
340.653	95.46
340.919	153.46
341.185	55.46
341.45	-74.54
341.716	27.46
341.982	115.46
342.248	-34.54
342.514	-75.54
342.779	24.46
343.045	32.46
343.311	-3.54
343.576	-79.54
343.842	-28.54
344.108	152.46
344.374	26.46
344.639	-112.54
344.905	-76.54
345.171	76.46
345.436	-57.54
345.702	-95.54
345.967	73.46
346.233	99.46
346.499	32.46
346.764	-159.54
347.03	-64.54
347.295	-25.54
347.561	18.46
347.826	-25.54
348.092	-96.54
348.357	-5.54
348.623	-17.54
348.888	-118.54
349.154	-69.54
349.419	55.46
349.685	17.46
349.95	-41.54
350.216	-28.54
350.481	65.46
350.747	-26.54
351.012	-148.54
351.277	-86.54
351.543	47.46
351.808	-1.54
352.074	-162.54
352.339	-111.54
352.604	56.46
352.87	30.46
353.135	-84.54
353.4	-49.54
353.666	7.46
353.931	-16.54
354.196	-126.54
354.461	-105.54
354.727	59.46
354.992	34.46
355.257	-113.54
355.522	-12.54
355.788	3.46
356.053	78.46
356.318	-63.54
356.583	-70.54
356.848	129.46
357.113	243.46
357.379	-33.54
357.644	-67.54
357.909	126.46
358.174	148.46
358.439	-103.54
358.704	-46.54
358.969	89.46
359.234	103.46
359.499	-92.54
359.765	1.46
360.03	127.46
360.295	124.46
360.56	-46.54
360.825	26.46
361.09	225.46
361.355	44.46
361.62	3.46
361.885	33.46
362.15	38.46
362.415	55.46
362.679	-12.54
362.944	131.46
363.209	156.46
363.474	187.46
363.739	127.46
364.004	28.46
364.269	91.46
364.534	128.46
364.799	94.46
365.063	105.46
365.328	203.46
365.593	225.46
365.858	88.46
366.123	87.46
366.387	225.46
366.652	152.46
366.917	68.46
367.182	126.46
367.447	267.46
367.711	220.46
367.976	154.46
368.241	232.46
368.505	288.46
368.77	187.46
369.035	186.46
369.299	228.46
369.564	274.46
369.829	202.46
370.093	178.46
370.358	190.46
370.623	293.46
370.887	309.46
371.152	184.46
371.416	261.46
371.681	303.46
371.946	234.46
372.21	232.46
372.475	367.46
372.739	376.46
373.004	306.46
373.268	277.46
373.533	368.46
373.797	414.46
374.062	415.46
374.326	274.46
374.591	367.46
374.855	467.46
375.12	420.46
375.384	262.46
375.648	346.46
375.913	510.46
376.177	522.46
376.442	404.46
376.706	431.46
376.97	568.46
377.235	552.46
377.499	520.46
377.763	544.46
378.028	546.46
378.292	577.46
378.556	514.46
378.821	458.46
379.085	550.46
379.349	506.46
379.614	472.46
379.878	612.46
380.142	793.46
380.406	722.46
380.671	731.46
380.935	869.46
381.199	974.46
381.463	855.46
381.727	825.46
381.991	796.46
382.256	885.46
382.52	835.46
382.784	884.46
383.048	1014.46
383.312	938.46
383.576	895.46
383.84	843.46
384.104	908.46
384.369	1011.46
384.633	946.46
384.897	850.46
385.161	1000.46
385.425	1115.46
385.689	1065.46
385.953	1015.46
386.217	1021.46
386.481	1155.46
386.745	1189.46
387.009	1164.46
387.273	1153.46
387.537	1178.46
387.801	1240.46
388.064	1193.46
388.328	1291.46
388.592	1357.46
388.856	1322.46
389.12	1279.46
389.384	1363.46
389.648	1393.46
389.912	1466.46
390.176	1496.46
390.439	1610.46
390.703	1457.46
390.967	1438.46
391.231	1354.46
391.495	1448.46
391.758	1559.46
392.022	1569.46
392.286	1437.46
392.55	1483.46
392.813	1633.46
393.077	1682.46
393.341	1627.46
393.605	1707.46
393.868	1681.46
394.132	1683.46
394.396	1680.46
394.659	1855.46
394.923	1804.46
395.187	1728.46
395.45	1773.46
395.714	1839.46
395.978	1857.46
396.241	1881.46
396.505	1858.46
396.768	1917.46
397.032	1997.46
397.295	2008.46
397.559	1944.46
397.823	1912.46
398.086	2041.46
398.35	2015.46
398.613	1928.46
398.877	2059.46
399.14	2208.46
399.404	2255.46
399.667	2143.46
399.931	2099.46
400.194	2223.46
400.457	2220.46
400.721	2192.46
400.984	2273.46
401.248	2272.46
401.511	2274.46
401.775	2164.46
402.038	2241.46
402.301	2475.46
402.565	2466.46
402.828	2264.46
403.091	2342.46
403.355	2524.46
403.618	2485.46
403.881	2501.46
404.145	2508.46
404.408	2558.46
404.671	2536.46
404.934	2578.46
405.198	2619.46
405.461	2625.46
405.724	2675.46
405.987	2657.46
406.251	2753.46
406.514	2875.46
406.777	2740.46
407.04	2668.46
407.303	2640.46
407.567	2798.46
407.83	2904.46
408.093	2717.46
408.356	2814.46
408.619	2932.46
408.882	3002.46
409.145	2928.46
409.408	2878.46
409.672	2965.46
409.935	2901.46
410.198	2809.46
410.461	2906.46
410.724	3151.46
410.987	3092.46
411.25	2929.46
411.513	3037.46
411.776	3100.46
412.039	2995.46
412.302	2990.46
412.565	3052.46
412.828	3070.46
413.091	3077.46
413.354	2983.46
413.617	2965.46
413.879	3029.46
414.142	3061.46
414.405	2903.46
414.668	2960.46
414.931	3117.46
415.194	3062.46
415.457	2910.46
415.72	3002.46
415.983	2998.46
416.245	3031.46
416.508	2934.46
416.771	2877.46
417.034	3049.46
417.297	3020.46
417.559	2957.46
417.822	2969.46
418.085	3075.46
418.348	3060.46
418.61	2945.46
418.873	2952.46
419.136	2970.46
419.399	2948.46
419.661	2976.46
419.924	2955.46
420.187	3050.46
420.449	3061.46
420.712	2994.46
420.975	2973.46
421.237	3090.46
421.5	3125.46
421.762	3149.46
422.025	3160.46
422.288	3238.46
422.55	3054.46
422.813	3017.46
423.075	3113.46
423.338	3199.46
423.601	3241.46
423.863	3224.46
424.126	3281.46
424.388	3371.46
424.651	3313.46
424.913	3288.46
425.176	3320.46
425.438	3338.46
425.701	3315.46
425.963	3223.46
426.225	3244.46
426.488	3323.46
426.75	3316.46
427.013	3273.46
427.275	3374.46
427.538	3411.46
427.8	3422.46
428.062	3335.46
428.325	3367.46
428.587	3421.46
428.849	3388.46
429.112	3420.46
429.374	3395.46
429.636	3429.46
429.899	3523.46
430.161	3431.46
430.423	3484.46
430.686	3622.46
430.948	3616.46
431.21	3450.46
431.472	3401.46
431.735	3525.46
431.997	3588.46
432.259	3554.46
432.521	3423.46
432.783	3576.46
433.046	3589.46
433.308	3461.46
433.57	3533.46
433.832	3780.46
434.094	3586.46
434.356	3476.46
434.618	3576.46
434.881	3637.46
435.143	3706.46
435.405	3715.46
435.667	3654.46
435.929	3678.46
436.191	3652.46
436.453	3569.46
436.715	3687.46
436.977	3866.46
437.239	3945.46
437.501	3777.46
437.763	3769.46
438.025	3887.46
438.287	3842.46
438.549	3805.46
438.811	3739.46
439.073	3793.46
439.335	3847.46
439.597	3782.46
439.859	3749.46
440.121	3862.46
440.383	3773.46
440.645	3745.46
440.907	3797.46
441.168	3862.46
441.43	3833.46
441.692	3851.46
441.954	3895.46
442.216	3918.46
442.478	3832.46
442.74	3727.46
443.001	3904.46
443.263	4084.46
443.525	3886.46
443.787	3749.46
444.048	3750.46
444.31	3828.46
444.572	3877.46
444.834	3860.46
445.095	3868.46
445.357	4006.46
445.619	3882.46
445.881	3769.46
446.142	3840.46
446.404	3791.46
446.666	3821.46
446.927	3842.46
447.189	3957.46
447.451	4045.46
447.712	3905.46
447.974	3747.46
448.235	3755.46
448.497	3877.46
448.759	3844.46
449.02	3817.46
449.282	3777.46
449.543	3926.46
449.805	3965.46
450.066	3666.46
450.328	3811.46
450.59	4062.46
450.851	3903.46
451.113	3793.46
451.374	3734.46
451.636	3955.46
451.897	3963.46
452.158	3886.46
452.42	3960.46
452.681	3987.46
452.943	3822.46
453.204	3801.46
453.466	3812.46
453.727	3856.46
453.988	3893.46
454.25	3789.46
454.511	3855.46
454.773	3957.46
455.034	4041.46
455.295	3754.46
455.557	3913.46
455.818	3982.46
456.079	3941.46
456.341	4041.46
456.602	4078.46
456.863	4089.46
457.124	3966.46
457.386	3855.46
457.647	3851.46
457.908	3907.46
458.169	4052.46
458.431	3930.46
458.692	3951.46
458.953	3981.46
459.214	4032.46
459.476	4196.46
459.737	4274.46
459.998	4269.46
460.259	4090.46
460.52	4083.46
460.781	4229.46
461.043	4391.46
461.304	4269.46
461.565	4107.46
461.826	4203.46
462.087	4346.46
462.348	4435.46
462.609	4417.46
462.87	4426.46
463.131	4320.46
463.392	4490.46
463.653	4493.46
463.914	4472.46
464.175	4443.46
464.436	4488.46
464.697	4568.46
464.958	4431.46
465.219	4493.46
465.48	4597.46
465.741	4590.46
466.002	4495.46
466.263	4714.46
466.524	4710.46
466.785	4587.46
467.046	4658.46
467.307	4808.46
467.568	4894.46
467.829	4877.46
468.089	4847.46
468.35	4919.46
468.611	4814.46
468.872	4758.46
469.133	4954.46
469.394	5137.46
469.655	5234.46
469.915	5086.46
470.176	4937.46
470.437	5041.46
470.698	5250.46
470.958	5265.46
471.219	5237.46
471.48	5375.46
471.741	5520.46
472.001	5440.46
472.262	5451.46
472.523	5685.46
472.784	5781.46
473.044	5657.46
473.305	5726.46
473.566	5743.46
473.826	5798.46
474.087	5745.46
474.348	5825.46
474.608	6081.46
474.869	6072.46
475.129	5947.46
475.39	5980.46
475.651	6181.46
475.911	6346.46
476.172	6209.46
476.432	6330.46
476.693	6531.46
476.953	6404.46
477.214	6412.46
477.475	6443.46
477.735	6499.46
477.996	6620.46
478.256	6444.46
478.517	6613.46
478.777	6815.46
479.038	6926.46
479.298	6894.46
479.558	6905.46
479.819	7068.46
480.079	7094.46
480.34	7094.46
480.6	7072.46
480.861	7234.46
481.121	7237.46
481.381	7200.46
481.642	7321.46
481.902	7347.46
482.162	7363.46
482.423	7377.46
482.683	7479.46
482.943	7557.46
483.204	7559.46
483.464	7591.46
483.724	7616.46
483.985	7705.46
484.245	7785.46
484.505	7730.46
484.765	7848.46
485.026	7909.46
485.286	7976.46
485.546	7975.46
485.806	7991.46
486.067	8074.46
486.327	8030.46
486.587	8000.46
486.847	8067.46
487.107	8209.46
487.368	8212.46
487.628	8172.46
487.888	8273.46
488.148	8372.46
488.408	8278.46
488.668	8317.46
488.928	8345.46
489.188	8379.46
489.449	8466.46
489.709	8360.46
489.969	8381.46
490.229	8574.46
490.489	8576.46
490.749	8451.46
491.009	8374.46
491.269	8459.46
491.529	8485.46
491.789	8484.46
492.049	8633.46
492.309	8722.46
492.569	8599.46
492.829	8589.46
493.089	8573.46
493.349	8776.46
493.609	8648.46
493.869	8550.46
494.129	8692.46
494.389	8781.46
494.648	8650.46
494.908	8568.46
495.168	8657.46
495.428	8775.46
495.688	8777.46
495.948	8630.46
496.208	8587.46
496.467	8673.46
496.727	8777.46
496.987	8734.46
497.247	8728.46
497.507	8873.46
497.767	8886.46
498.026	8680.46
498.286	8764.46
498.546	8925.46
498.806	8835.46
499.065	8898.46
499.325	8776.46
499.585	8788.46
499.845	8850.46
500.104	8816.46
500.364	8887.46
500.624	8873.46
500.883	8806.46
501.143	8866.46
501.403	8889.46
501.662	8989.46
501.922	8926.46
502.182	8735.46
502.441	8722.46
502.701	8821.46
502.96	8976.46
503.22	8940.46
503.48	8819.46
503.739	8895.46
503.999	8859.46
504.258	8790.46
504.518	8839.46
504.777	8927.46
505.037	8899.46
505.296	8820.46
505.556	8808.46
505.815	8974.46
506.075	9076.46
506.334	8981.46
506.594	8779.46
506.853	8847.46
507.113	8824.46
507.372	8633.46
507.632	8719.46
507.891	8825.46
508.151	8863.46
508.41	8736.46
508.669	8827.46
508.929	8929.46
509.188	8840.46
509.447	8820.46
509.707	8783.46
509.966	8860.46
510.226	8871.46
510.485	8828.46
510.744	8770.46
511.004	8828.46
511.263	8783.46
511.522	8710.46
511.781	8761.46
512.041	8859.46
512.3	8782.46
512.559	8915.46
512.818	8975.46
513.078	8953.46
513.337	8889.46
513.596	8733.46
513.855	8770.46
514.115	8861.46
514.374	8866.46
514.633	8738.46
514.892	8760.46
515.151	8914.46
515.41	8927.46
515.67	8841.46
515.929	8815.46
516.188	8927.46
516.447	8870.46
516.706	8794.46
516.965	8957.46
517.224	9005.46
517.483	9002.46
517.743	8923.46
518.002	8945.46
518.261	9030.46
518.52	9007.46
518.779	8879.46
519.038	8891.46
519.297	8908.46
519.556	8879.46
519.815	8833.46
520.074	8853.46
520.333	8980.46
520.592	8965.46
520.851	8817.46
521.11	8963.46
521.369	9127.46
521.628	8938.46
521.887	8845.46
522.145	8880.46
522.404	8927.46
522.663	8916.46
522.922	8803.46
523.181	8809.46
523.44	8897.46
523.699	8923.46
523.958	8823.46
524.217	8802.46
524.475	8852.46
524.734	8885.46
524.993	8814.46
525.252	8762.46
525.511	8830.46
525.769	8849.46
526.028	8722.46
526.287	8792.46
526.546	8880.46
526.805	8904.46
527.063	8767.46
527.322	8742.46
527.581	8857.46
527.839	8823.46
528.098	8806.46
528.357	8783.46
528.616	8798.46
528.874	8803.46
529.133	8801.46
529.392	8859.46
529.65	8866.46
529.909	8811.46
530.168	8715.46
530.426	8727.46
530.685	8845.46
530.943	8775.46
531.202	8673.46
531.461	8677.46
531.719	8842.46
531.978	8753.46
532.236	8630.46
532.495	8715.46
532.753	8855.46
533.012	8749.46
533.271	8666.46
533.529	8590.46
533.788	8768.46
534.046	8732.46
534.305	8656.46
534.563	8914.46
534.822	8937.46
535.08	8824.46
535.338	8743.46
535.597	8722.46
535.855	8832.46
536.114	8754.46
536.372	8669.46
536.631	8758.46
536.889	8874.46
537.147	8867.46
537.406	8623.46
537.664	8749.46
537.923	8887.46
538.181	8918.46
538.439	8719.46
538.698	8822.46
538.956	8822.46
539.214	8819.46
539.473	8829.46
539.731	8868.46
539.989	8969.46
540.248	8879.46
540.506	8835.46
540.764	8933.46
541.022	8981.46
541.281	9037.46
541.539	8937.46
541.797	8902.46
542.055	9015.46
542.314	9125.46
542.572	9075.46
542.83	9020.46
543.088	9113.46
543.346	9049.46
543.604	9049.46
543.863	9096.46
544.121	9245.46
544.379	9238.46
544.637	9132.46
544.895	9250.46
545.153	9370.46
545.411	9194.46
545.67	9056.46
545.928	9178.46
546.186	9313.46
546.444	9362.46
546.702	9343.46
546.96	9426.46
547.218	9458.46
547.476	9407.46
547.734	9347.46
547.992	9450.46
548.25	9598.46
548.508	9508.46
548.766	9491.46
549.024	9557.46
549.282	9645.46
549.54	9711.46
549.798	9654.46
550.056	9736.46
550.314	9818.46
550.572	9784.46
550.83	9635.46
551.088	9804.46
551.346	9936.46
551.603	9941.46
551.861	9893.46
552.119	9966.46
552.377	10031.46
552.635	10007.46
552.893	9904.46
553.151	9971.46
553.409	10145.46
553.666	10154.46
553.924	10129.46
554.182	10122.46
554.44	10232.46
554.698	10365.46
554.955	10263.46
555.213	10263.46
555.471	10388.46
555.729	10362.46
555.986	10238.46
556.244	10312.46
556.502	10554.46
556.76	10404.46
557.017	10379.46
557.275	10466.46
557.533	10644.46
557.79	10626.46
558.048	10479.46
558.306	10445.46
558.563	10583.46
558.821	10589.46
559.079	10610.46
559.336	10622.46
559.594	10608.46
559.852	10586.46
560.109	10538.46
560.367	10686.46
560.624	10708.46
560.882	10677.46
561.14	10710.46
561.397	10805.46
561.655	10731.46
561.912	10737.46
562.17	10675.46
562.427	10716.46
562.685	10857.46
562.942	10855.46
563.2	10741.46
563.457	10804.46
563.715	10873.46
563.972	10883.46
564.23	10661.46
564.487	10644.46
564.745	10801.46
565.002	10805.46
565.26	10763.46
565.517	10693.46
565.774	10791.46
566.032	10845.46
566.289	10777.46
566.547	10731.46
566.804	10832.46
567.061	10770.46
567.319	10650.46
567.576	10735.46
567.833	10850.46
568.091	10840.46
568.348	10754.46
568.605	10789.46
568.863	10846.46
569.12	10775.46
569.377	10720.46
569.635	10579.46
569.892	10611.46
570.149	10622.46
570.406	10463.46
570.664	10500.46
570.921	10684.46
571.178	10518.46
571.435	10469.46
571.693	10535.46
571.95	10584.46
572.207	10472.46
572.464	10388.46
572.721	10467.46
572.979	10521.46
573.236	10411.46
573.493	10362.46
573.75	10291.46
574.007	10374.46
574.264	10365.46
574.521	10281.46
574.779	10184.46
575.036	10241.46
575.293	10195.46
575.55	10062.46
575.807	10052.46
576.064	10066.46
576.321	9988.46
576.578	9824.46
576.835	9831.46
577.092	10001.46
577.349	9867.46
577.606	9667.46
577.863	9741.46
578.12	9816.46
578.377	9739.46
578.634	9514.46
578.891	9470.46
579.148	9554.46
579.405	9494.46
579.662	9388.46
579.919	9417.46
580.176	9390.46
580.433	9339.46
580.69	9200.46
580.947	9235.46
581.204	9289.46
581.461	9138.46
581.717	8929.46
581.974	9065.46
582.231	9106.46
582.488	8902.46
582.745	8707.46
583.002	8726.46
583.259	8945.46
583.515	8796.46
583.772	8585.46
584.029	8592.46
584.286	8651.46
584.543	8454.46
584.799	8424.46
585.056	8394.46
585.313	8469.46
585.57	8418.46
585.826	8245.46
586.083	8337.46
586.34	8463.46
586.597	8131.46
586.853	7991.46
587.11	8074.46
587.367	8173.46
587.623	8124.46
587.88	7975.46
588.137	7852.46
588.393	7937.46
588.65	7851.46
588.907	7766.46
589.163	7850.46
589.42	7812.46
589.677	7734.46
589.933	7640.46
590.19	7702.46
590.446	7780.46
590.703	7752.46
590.96	7521.46
591.216	7452.46
591.473	7510.46
591.729	7474.46
591.986	7411.46
592.242	7436.46
592.499	7646.46
592.755	7461.46
593.012	7320.46
593.268	7372.46
593.525	7352.46
593.781	7378.46
594.038	7244.46
594.294	7306.46
594.551	7290.46
594.807	7174.46
595.064	7153.46
595.32	7132.46
595.576	7229.46
595.833	7273.46
596.089	7107.46
596.346	7178.46
596.602	7259.46
596.858	7292.46
597.115	7158.46
597.371	7205.46
597.628	7201.46
597.884	7149.46
598.14	7062.46
598.397	7166.46
598.653	7259.46
598.909	7115.46
599.166	7027.46
599.422	7045.46
599.678	7086.46
599.934	7050.46
600.191	6891.46
600.447	6956.46
600.703	6975.46
600.959	6913.46
601.216	6801.46
601.472	6867.46
601.728	6973.46
601.984	6891.46
602.241	6811.46
602.497	6926.46
602.753	7081.46
603.009	6952.46
603.265	6805.46
603.521	6934.46
603.778	7064.46
604.034	6891.46
604.29	6735.46
604.546	6835.46
604.802	6945.46
605.058	6876.46
605.314	6778.46
605.571	6792.46
605.827	6826.46
606.083	6852.46
606.339	6826.46
606.595	6898.46
606.851	6957.46
607.107	6999.46
607.363	6741.46
607.619	6763.46
607.875	6943.46
608.131	6853.46
608.387	6660.46
608.643	6729.46
608.899	6830.46
609.155	6811.46
609.411	6778.46
609.667	6782.46
609.923	6779.46
610.179	6739.46
610.435	6541.46
610.691	6558.46
610.947	6739.46
611.203	6690.46
611.459	6623.46
611.714	6698.46
611.97	6791.46
612.226	6687.46
612.482	6498.46
612.738	6611.46
612.994	6858.46
613.25	6659.46
613.505	6511.46
613.761	6527.46
614.017	6577.46
614.273	6597.46
614.529	6492.46
614.785	6458.46
615.04	6576.46
615.296	6557.46
615.552	6537.46
615.808	6528.46
616.063	6569.46
616.319	6525.46
616.575	6354.46
616.831	6433.46
617.086	6616.46
617.342	6584.46
617.598	6489.46
617.854	6527.46
618.109	6562.46
618.365	6348.46
618.621	6268.46
618.876	6413.46
619.132	6526.46
619.388	6414.46
619.643	6181.46
619.899	6236.46
620.155	6344.46
620.41	6316.46
620.666	6197.46
620.921	6218.46
621.177	6319.46
621.433	6334.46
621.688	6238.46
621.944	6171.46
622.199	6230.46
622.455	6224.46
622.71	6107.46
622.966	6107.46
623.221	6097.46
623.477	6055.46
623.732	6065.46
623.988	6014.46
624.243	6163.46
624.499	6156.46
624.754	5928.46
625.01	5935.46
625.265	6019.46
625.521	6088.46
625.776	5984.46
626.032	5991.46
626.287	6021.46
626.543	5978.46
626.798	5878.46
627.053	5889.46
627.309	5949.46
627.564	5835.46
627.82	5797.46
628.075	5902.46
628.33	5821.46
628.586	5695.46
628.841	5579.46
629.096	5719.46
629.352	5753.46
629.607	5646.46
629.862	5597.46
630.118	5735.46
630.373	5670.46
630.628	5675.46
630.884	5540.46
631.139	5587.46
631.394	5710.46
631.649	5643.46
631.905	5508.46
632.16	5577.46
632.415	5731.46
632.67	5576.46
632.926	5406.46
633.181	5376.46
633.436	5515.46
633.691	5459.46
633.946	5302.46
634.202	5300.46
634.457	5408.46
634.712	5366.46
634.967	5274.46
635.222	5211.46
635.477	5297.46
635.733	5302.46
635.988	5182.46
636.243	5227.46
636.498	5343.46
636.753	5284.46
637.008	5107.46
637.263	5157.46
637.518	5224.46
637.773	5158.46
638.028	5099.46
638.283	5129.46
638.539	5216.46
638.794	5114.46
639.049	4961.46
639.304	4991.46
639.559	5025.46
639.814	4978.46
640.069	4937.46
640.324	4952.46
640.579	5024.46
640.834	4984.46
641.089	4848.46
641.344	4879.46
641.598	5075.46
641.853	4970.46
642.108	4776.46
642.363	4738.46
642.618	4920.46
642.873	4793.46
643.128	4662.46
643.383	4746.46
643.638	4815.46
643.893	4855.46
644.148	4810.46
644.402	4699.46
644.657	4806.46
644.912	4721.46
645.167	4631.46
645.422	4735.46
645.677	4731.46
645.931	4711.46
646.186	4692.46
646.441	4600.46
646.696	4603.46
646.951	4614.46
647.205	4538.46
647.46	4544.46
647.715	4576.46
647.97	4732.46
648.224	4836.46
648.479	4639.46
648.734	4716.46
648.989	4646.46
649.243	4520.46
649.498	4504.46
649.753	4563.46
650.007	4627.46
650.262	4443.46
650.517	4439.46
650.771	4512.46
651.026	4422.46
651.281	4325.46
651.535	4409.46
651.79	4461.46
652.045	4453.46
652.299	4349.46
652.554	4363.46
652.809	4453.46
653.063	4547.46
653.318	4453.46
653.572	4365.46
653.827	4465.46
654.081	4365.46
654.336	4239.46
654.591	4253.46
654.845	4348.46
655.1	4317.46
655.354	4287.46
655.609	4323.46
655.863	4445.46
656.118	4429.46
656.372	4243.46
656.627	4241.46
656.881	4372.46
657.136	4273.46
657.39	4153.46
657.645	4314.46
657.899	4459.46
658.153	4311.46
658.408	4205.46
658.662	4265.46
658.917	4298.46
659.171	4214.46
659.426	4122.46
659.68	4141.46
659.934	4241.46
660.189	4205.46
660.443	4133.46
660.697	4280.46
660.952	4334.46
661.206	4239.46
661.46	4082.46
661.715	4128.46
661.969	4246.46
662.223	4261.46
662.478	4167.46
662.732	4203.46
662.986	4233.46
663.241	4247.46
663.495	4139.46
663.749	4167.46
664.003	4315.46
664.258	4220.46
664.512	4131.46
664.766	4197.46
665.02	4257.46
665.275	4304.46
665.529	4134.46
665.783	4150.46
666.037	4235.46
666.291	4240.46
666.546	4152.46
666.8	4187.46
667.054	4171.46
667.308	4248.46
667.562	4075.46
667.816	4155.46
668.071	4255.46
668.325	4210.46
668.579	4186.46
668.833	4222.46
669.087	4332.46
669.341	4282.46
669.595	4168.46
669.849	4208.46
670.103	4290.46
670.357	4271.46
670.612	4230.46
670.866	4228.46
671.12	4329.46
671.374	4312.46
671.628	4227.46
671.882	4192.46
672.136	4311.46
672.39	4321.46
672.644	4173.46
672.898	4334.46
673.152	4521.46
673.406	4419.46
673.66	4312.46
673.914	4340.46
674.168	4417.46
674.422	4361.46
674.675	4264.46
674.929	4342.46
675.183	4475.46
675.437	4423.46
675.691	4371.46
675.945	4439.46
676.199	4551.46
676.453	4408.46
676.707	4287.46
676.961	4325.46
677.214	4438.46
677.468	4464.46
677.722	4467.46
677.976	4443.46
678.23	4548.46
678.484	4511.46
678.737	4375.46
678.991	4450.46
679.245	4523.46
679.499	4473.46
679.753	4413.46
680.006	4511.46
680.26	4615.46
680.514	4589.46
680.768	4441.46
681.021	4526.46
681.275	4613.46
681.529	4600.46
681.783	4526.46
682.036	4552.46
682.29	4566.46
682.544	4587.46
682.797	4579.46
683.051	4577.46
683.305	4659.46
683.559	4652.46
683.812	4622.46
684.066	4634.46
684.32	4727.46
684.573	4697.46
684.827	4699.46
685.08	4707.46
685.334	4824.46
685.588	4740.46
685.841	4602.46
686.095	4737.46
686.348	4737.46
686.602	4767.46
686.856	4754.46
687.109	4704.46
687.363	4724.46
687.616	4690.46
687.87	4605.46
688.123	4666.46
688.377	4798.46
688.63	4862.46
688.884	4825.46
689.137	4870.46
689.391	4916.46
689.644	4743.46
689.898	4675.46
690.151	4710.46
690.405	4848.46
690.658	4784.46
690.912	4718.46
691.165	4751.46
691.419	4841.46
691.672	4849.46
691.926	4769.46
692.179	4780.46
692.432	4880.46
692.686	4832.46
692.939	4679.46
693.193	4813.46
693.446	4966.46
693.699	4911.46
693.953	4874.46
694.206	4844.46
694.459	4919.46
694.713	4968.46
694.966	4820.46
695.219	4830.46
695.473	4910.46
695.726	4817.46
695.979	4749.46
696.233	4830.46
696.486	4925.46
696.739	4901.46
696.992	4814.46
697.246	4921.46
697.499	5034.46
697.752	4805.46
698.006	4773.46
698.259	4871.46
698.512	4899.46
698.765	4826.46
699.018	4795.46
699.272	4896.46
699.525	4895.46
699.778	4801.46
700.031	4755.46
700.284	4793.46
700.538	4913.46
700.791	4886.46
701.044	4817.46
701.297	4846.46
701.55	4870.46
701.803	4839.46
702.056	4764.46
702.31	4808.46
702.563	4894.46
702.816	4798.46
703.069	4659.46
703.322	4730.46
703.575	4825.46
703.828	4834.46
704.081	4735.46
704.334	4743.46
704.587	4822.46
704.84	4783.46
705.093	4781.46
705.346	4900.46
705.599	4890.46
705.853	4881.46
706.106	4887.46
706.359	5136.46
706.612	4890.46
706.865	4892.46
707.118	4701.46
707.37	4766.46
707.623	4907.46
707.876	4816.46
708.129	4721.46
708.382	4820.46
708.635	4942.46
708.888	4827.46
709.141	4714.46
709.394	4827.46
709.647	4892.46
709.9	4706.46
710.153	4606.46
710.406	4747.46
710.658	4824.46
710.911	4750.46
711.164	4600.46
711.417	4612.46
711.67	4700.46
711.923	4738.46
712.176	4637.46
712.428	4631.46
712.681	4712.46
712.934	4708.46
713.187	4641.46
713.44	4585.46
713.692	4711.46
713.945	4585.46
714.198	4510.46
714.451	4475.46
714.704	4631.46
714.956	4651.46
715.209	4652.46
715.462	4615.46
715.715	4639.46
715.967	4622.46
716.22	4453.46
716.473	4491.46
716.725	4654.46
716.978	4586.46
717.231	4533.46
717.484	4589.46
717.736	4505.46
717.989	4432.46
718.242	4407.46
718.494	4483.46
718.747	4616.46
718.999	4512.46
719.252	4496.46
719.505	4501.46
719.757	4496.46
720.01	4470.46
720.263	4389.46
720.515	4420.46
720.768	4522.46
721.02	4443.46
721.273	4305.46
721.525	4276.46
721.778	4377.46
722.031	4485.46
722.283	4298.46
722.536	4299.46
722.788	4391.46
723.041	4360.46
723.293	4253.46
723.546	4238.46
723.798	4281.46
724.051	4369.46
724.303	4329.46
724.556	4294.46
724.808	4419.46
725.061	4337.46
725.313	4202.46
725.566	4186.46
725.818	4230.46
726.071	4207.46
726.323	4050.46
726.575	4106.46
726.828	4245.46
727.08	4201.46
727.333	4106.46
727.585	4145.46
727.837	4172.46
728.09	4199.46
728.342	4050.46
728.595	4135.46
728.847	4274.46
729.099	4017.46
729.352	4021.46
729.604	3990.46
729.856	4110.46
730.109	4070.46
730.361	3976.46
730.613	4055.46
730.866	4120.46
731.118	4035.46
731.37	3892.46
731.622	3902.46
731.875	4011.46
732.127	4079.46
732.379	4019.46
732.631	4043.46
732.884	4000.46
733.136	3909.46
733.388	3799.46
733.64	3883.46
733.893	4014.46
734.145	3913.46
734.397	3741.46
734.649	3740.46
734.901	3854.46
735.154	3770.46
735.406	3687.46
735.658	3794.46
735.91	3915.46
736.162	3823.46
736.414	3670.46
736.667	3757.46
736.919	3820.46
737.171	3697.46
737.423	3642.46
737.675	3700.46
737.927	3802.46
738.179	3721.46
738.431	3664.46
738.684	3618.46
738.936	3693.46
739.188	3745.46
739.44	3513.46
739.692	3525.46
739.944	3582.46
740.196	3605.46
740.448	3563.46
740.7	3547.46
740.952	3571.46
741.204	3590.46
741.456	3508.46
741.708	3541.46
741.96	3520.46
742.212	3586.46
742.464	3593.46
742.716	3468.46
742.968	3522.46
743.22	3472.46
743.472	3403.46
743.724	3447.46
743.976	3587.46
744.228	3556.46
744.48	3334.46
744.732	3379.46
744.983	3501.46
745.235	3486.46
745.487	3433.46
745.739	3483.46
745.991	3452.46
746.243	3504.46
746.495	3370.46
746.747	3373.46
746.999	3455.46
747.25	3418.46
747.502	3364.46
747.754	3451.46
748.006	3434.46
748.258	3520.46
748.51	3519.46
748.761	3397.46
749.013	3441.46
749.265	3452.46
749.517	3438.46
749.768	3470.46
750.02	3468.46
750.272	3449.46
750.524	3262.46
750.776	3225.46
751.027	3427.46
751.279	3425.46
751.531	3218.46
751.782	3287.46
752.034	3394.46
752.286	3261.46
752.538	3147.46
752.789	3214.46
753.041	3312.46
753.293	3296.46
753.544	3212.46
753.796	3216.46
754.048	3283.46
754.299	3299.46
754.551	3216.46
754.803	3155.46
755.054	3198.46
755.306	3231.46
755.558	3136.46
755.809	3173.46
756.061	3294.46
756.312	3205.46
756.564	3157.46
756.816	3161.46
757.067	3156.46
757.319	3121.46
757.57	3069.46
757.822	3146.46
758.073	3228.46
758.325	3135.46
758.577	2985.46
758.828	3030.46
759.08	3231.46
759.331	3200.46
759.583	3026.46
759.834	3082.46
760.086	3033.46
760.337	3059.46
760.589	3007.46
760.84	2979.46
761.092	3033.46
761.343	2993.46
761.595	2870.46
761.846	3013.46
762.097	3010.46
762.349	2974.46
762.6	2869.46
762.852	3021.46
763.103	3114.46
763.355	2954.46
763.606	2846.46
763.857	2994.46
764.109	3072.46
764.36	2963.46
764.612	2869.46
764.863	2976.46
765.114	3006.46
765.366	2875.46
765.617	2785.46
765.868	2839.46
766.12	2975.46
766.371	2959.46
766.622	2731.46
766.874	2859.46
767.125	3010.46
767.376	2830.46
767.628	2754.46
767.879	2822.46
768.13	2910.46
768.381	2908.46
768.633	2842.46
768.884	2821.46
769.135	2873.46
769.386	2823.46
769.638	2776.46
769.889	2803.46
770.14	2848.46
770.391	2714.46
770.643	2632.46
770.894	2671.46
771.145	2816.46
771.396	2730.46
771.647	2626.46
771.899	2759.46
772.15	2855.46
772.401	2770.46
772.652	2631.46
772.903	2658.46
773.154	2989.46
773.406	3189.46
773.657	2669.46
773.908	2652.46
774.159	2741.46
774.41	2751.46
774.661	2627.46
774.912	2637.46
775.163	2825.46
775.414	2773.46
775.666	2534.46
775.917	2552.46
776.168	2604.46
776.419	2616.46
776.67	2552.46
776.921	2542.46
777.172	2624.46
777.423	2663.46
777.674	2647.46
777.925	2599.46
778.176	2544.46
778.427	2519.46
778.678	2456.46
778.929	2512.46
779.18	2604.46
779.431	2521.46
779.682	2528.46
779.933	2554.46
780.184	2569.46
780.435	2526.46
780.686	2499.46
780.937	2560.46
781.188	2562.46
781.439	2662.46
781.69	2556.46
781.941	2495.46
782.191	2518.46
782.442	2506.46
782.693	2386.46
782.944	2394.46
783.195	2454.46
783.446	2458.46
783.697	2466.46
783.948	2386.46
784.199	2448.46
784.449	2402.46
784.7	2407.46
784.951	2451.46
785.202	2567.46
785.453	2485.46
785.704	2320.46
785.954	2284.46
786.205	2357.46
786.456	2318.46
786.707	2220.46
786.958	2254.46
787.208	2343.46
787.459	2316.46
787.71	2353.46
787.961	2332.46
788.211	2357.46
788.462	2331.46
788.713	2279.46
788.964	2282.46
789.214	2376.46
789.465	2376.46
789.716	2285.46
789.967	2281.46
790.217	2325.46
790.468	2276.46
790.719	2161.46
790.969	2239.46
791.22	2306.46
791.471	2357.46
791.721	2355.46
791.972	2248.46
792.223	2307.46
792.473	2213.46
792.724	2182.46
792.975	2160.46
793.225	2251.46
793.476	2208.46
793.726	2149.46
793.977	2246.46
794.228	2340.46
794.478	2249.46
794.729	2152.46
794.979	2219.46
795.23	2257.46
795.481	2214.46
795.731	2146.46
795.982	2221.46
796.232	2188.46
796.483	2121.46
796.733	2059.46
796.984	2130.46
797.234	2164.46
797.485	2205.46
797.735	2070.46
797.986	2087.46
798.236	2198.46
798.487	2122.46
798.737	2101.46
798.988	2195.46
799.238	2261.46
799.489	2115.46
799.739	2015.46
799.99	2093.46
800.24	2196.46
800.491	2214.46
800.741	2060.46
800.991	1997.46
801.242	2086.46
801.492	2119.46
801.743	2042.46
801.993	2261.46
802.244	2457.46
802.494	2084.46
802.744	1998.46
802.995	2051.46
803.245	2073.46
803.495	2059.46
803.746	2001.46
803.996	2058.46
804.246	2044.46
804.497	2042.46
804.747	1930.46
804.997	2002.46
805.248	1985.46
805.498	1948.46
805.748	1973.46
805.999	1901.46
806.249	1985.46
806.499	1990.46
806.75	1854.46
807	1893.46
807.25	2005.46
807.5	1941.46
807.751	1922.46
808.001	1980.46
808.251	2001.46
808.501	2064.46
808.752	2039.46
809.002	1964.46
809.252	1986.46
809.502	1921.46
809.752	1890.46
810.003	1839.46
810.253	1884.46
810.503	1933.46
810.753	1956.46
811.003	1983.46
811.254	1994.46
811.504	1894.46
811.754	1869.46
812.004	1870.46
812.254	2099.46
812.504	1947.46
812.754	1850.46
813.005	1908.46
813.255	1965.46
813.505	1922.46
813.755	1805.46
814.005	1865.46
814.255	1879.46
814.505	1848.46
814.755	1763.46
815.005	1799.46
815.255	1891.46
815.505	1805.46
815.756	1831.46
816.006	1853.46
816.256	1814.46
816.506	1768.46
816.756	1752.46
817.006	1738.46
817.256	1831.46
817.506	1838.46
817.756	1781.46
818.006	1803.46
818.256	1832.46
818.506	1785.46
818.756	1659.46
819.006	1729.46
819.256	1823.46
819.506	1770.46
819.756	1713.46
820.006	1779.46
820.255	1832.46
820.505	1798.46
820.755	1686.46
821.005	1726.46
821.255	1821.46
821.505	1763.46
821.755	1697.46
822.005	1779.46
822.255	1856.46
822.505	1767.46
822.755	1770.46
823.004	1653.46
823.254	1662.46
823.504	1750.46
823.754	1739.46
824.004	1685.46
824.254	1793.46
824.504	1757.46
824.753	1772.46
825.003	1750.46
825.253	1785.46
825.503	1703.46
825.753	1665.46
826.002	1742.46
826.252	1915.46
826.502	1700.46
826.752	1613.46
827.002	1657.46
827.251	1763.46
827.501	1667.46
827.751	1591.46
828.001	1603.46
828.25	1688.46
828.5	1601.46
828.75	1547.46
829	1638.46
829.249	1789.46
829.499	1626.46
829.749	1595.46
829.998	1663.46
830.248	1656.46
830.498	1544.46
830.748	1563.46
830.997	1631.46
831.247	1703.46
831.497	1689.46
831.746	1596.46
831.996	1684.46
832.246	1783.46
832.495	1790.46
832.745	1528.46
832.994	1566.46
833.244	1713.46
833.494	1598.46
833.743	1480.46
833.993	1547.46
834.243	1634.46
834.492	1611.46
834.742	1582.46
834.991	1601.46
835.241	1753.46
835.49	1581.46
835.74	1487.46
835.99	1576.46
836.239	1654.46
836.489	1634.46
836.738	1536.46
836.988	1422.46
837.237	1537.46
837.487	1634.46
837.736	1499.46
837.986	1487.46
838.235	1585.46
838.485	1536.46
838.734	1478.46
838.984	1522.46
839.233	1511.46
839.483	1423.46
839.732	1402.46
839.982	1504.46
840.231	1575.46
840.481	1553.46
840.73	1435.46
840.979	1470.46
841.229	1493.46
841.478	1471.46
841.728	1348.46
841.977	1328.46
842.227	1405.46
842.476	1352.46
842.725	1325.46
842.975	1397.46
843.224	1537.46
843.474	1569.46
843.723	1456.46
843.972	1424.46
844.222	1455.46
844.471	1520.46
844.72	1407.46
844.97	1406.46
845.219	1507.46
845.468	1477.46
845.718	1424.46
845.967	1421.46
846.216	1453.46
846.466	1488.46
846.715	1398.46
846.964	1414.46
847.214	1398.46
847.463	1365.46
847.712	1383.46
847.961	1377.46
848.211	1438.46
848.46	1397.46
848.709	1347.46
848.958	1320.46
849.208	1406.46
849.457	1386.46
849.706	1393.46
849.955	1360.46
850.205	1339.46
850.454	1442.46
850.703	1470.46
850.952	1370.46
851.201	1402.46
851.451	1358.46
851.7	1365.46
851.949	1226.46
852.198	1347.46
852.447	1335.46
852.696	1260.46
852.946	1282.46
853.195	1410.46
853.444	1368.46
853.693	1200.46
853.942	1197.46
854.191	1346.46
854.44	1375.46
854.689	1281.46
854.939	1217.46
855.188	1200.46
855.437	1237.46
855.686	1213.46
855.935	1257.46
856.184	1312.46
856.433	1345.46
856.682	1283.46
856.931	1286.46
857.18	1338.46
857.429	1247.46
857.678	1190.46
857.927	1231.46
858.176	1264.46
858.425	1178.46
858.674	1102.46
858.924	1211.46
859.173	1205.46
859.422	1238.46
859.671	1130.46
859.92	1181.46
860.169	1211.46
860.417	1261.46
860.666	1178.46
860.915	1124.46
861.164	1187.46
861.413	1126.46
861.662	1070.46
861.911	1099.46
862.16	1237.46
862.409	1207.46
862.658	1068.46
862.907	1103.46
863.156	1177.46
863.405	1178.46
863.654	1088.46
863.903	1065.46
864.151	1142.46
864.4	1189.46
864.649	1106.46
864.898	1143.46
865.147	1187.46
865.396	1223.46
865.645	1077.46
865.894	1101.46
866.142	1263.46
866.391	1159.46
866.64	1036.46
866.889	1130.46
867.138	1274.46
867.387	1156.46
867.635	1057.46
867.884	1120.46
868.133	1230.46
868.382	1147.46
868.631	1007.46
868.879	1031.46
869.128	1128.46
869.377	1121.46
869.626	1057.46
869.874	1063.46
870.123	1147.46
870.372	1101.46
870.621	1009.46
870.869	1039.46
871.118	1118.46
871.367	1103.46
871.616	985.46
871.864	1072.46
872.113	1106.46
872.362	1072.46
872.61	1024.46
872.859	1078.46
873.108	1135.46
873.357	1031.46
873.605	946.46
873.854	970.46
874.103	982.46
874.351	970.46
874.6	980.46
874.848	1023.46
875.097	1088.46
875.346	1063.46
875.594	958.46
875.843	1067.46
876.092	1191.46
876.34	1062.46
876.589	950.46
876.837	875.46
877.086	954.46
877.335	1022.46
877.583	969.46
877.832	1011.46
878.08	1144.46
878.329	1029.46
878.578	926.46
878.826	954.46
879.075	1045.46
879.323	1044.46
879.572	948.46
879.82	1071.46
880.069	1030.46
880.317	1015.46
880.566	908.46
880.814	998.46
881.063	1105.46
881.311	999.46
881.56	1002.46
881.808	931.46
882.057	998.46
882.305	969.46
882.554	971.46
882.802	889.46
883.051	923.46
883.299	933.46
883.548	895.46
883.796	959.46
884.045	977.46
884.293	894.46
884.541	795.46
884.79	796.46
885.038	896.46
885.287	880.46
885.535	888.46
885.783	943.46
886.032	893.46
886.28	838.46
886.529	777.46
886.777	851.46
887.025	1003.46
887.274	842.46
887.522	809.46
887.77	851.46
888.019	879.46
888.267	826.46
888.516	749.46
888.764	798.46
889.012	883.46
889.261	885.46
889.509	797.46
889.757	802.46
890.005	831.46
890.254	783.46
890.502	827.46
890.75	1033.46
890.999	1016.46
891.247	914.46
891.495	876.46
891.743	863.46
891.992	990.46
892.24	855.46
892.488	747.46
892.737	781.46
892.985	873.46
893.233	862.46
893.481	780.46
893.729	775.46
893.978	907.46
894.226	909.46
894.474	793.46
894.722	792.46
894.97	803.46
895.219	766.46
895.467	792.46
895.715	824.46
895.963	800.46
896.211	763.46
896.46	674.46
896.708	794.46
896.956	882.46
897.204	940.46
897.452	822.46
897.7	752.46
897.948	853.46
898.197	796.46
898.445	739.46
898.693	741.46
898.941	812.46
899.189	814.46
899.437	738.46
899.685	823.46
899.933	782.46
900.181	780.46
900.43	694.46
900.678	715.46
900.926	789.46
901.174	758.46
901.422	714.46
901.67	710.46
901.918	767.46
902.166	747.46
902.414	613.46
902.662	650.46
902.91	778.46
903.158	757.46
903.406	697.46
903.654	685.46
903.902	718.46
904.15	714.46
904.398	601.46
904.646	669.46
904.894	772.46
905.142	787.46
905.39	731.46
905.638	655.46
905.886	687.46
906.134	674.46
906.382	683.46
906.63	644.46
906.878	739.46
907.126	711.46
907.374	637.46
907.622	645.46
907.869	767.46
908.117	749.46
908.365	695.46
908.613	655.46
908.861	643.46
909.109	626.46
909.357	581.46
909.605	656.46
909.853	744.46
910.1	661.46
910.348	502.46
910.596	527.46
910.844	691.46
911.092	733.46
911.34	653.46
911.588	661.46
911.835	706.46
912.083	675.46
912.331	662.46
912.579	697.46
912.827	862.46
913.075	703.46
913.322	567.46
913.57	583.46
913.818	719.46
914.066	665.46
914.313	581.46
914.561	677.46
914.809	695.46
915.057	615.46
915.305	591.46
915.552	568.46
915.8	682.46
916.048	614.46
916.296	540.46
916.543	669.46
916.791	735.46
917.039	646.46
917.286	529.46
917.534	542.46
917.782	683.46
918.03	590.46
918.277	470.46
918.525	474.46
918.773	591.46
919.02	585.46
919.268	526.46
919.516	556.46
919.763	553.46
920.011	567.46
920.259	477.46
920.506	574.46
920.754	668.46
921.002	652.46
921.249	597.46
921.497	549.46
921.745	597.46
921.992	601.46
922.24	446.46
922.487	572.46
922.735	761.46
922.983	657.46
923.23	545.46
923.478	516.46
923.725	573.46
923.973	579.46
924.221	555.46
924.468	582.46
924.716	570.46
924.963	574.46
925.211	516.46
925.458	548.46
925.706	660.46
925.953	713.46
926.201	521.46
926.448	485.46
926.696	601.46
926.944	570.46
927.191	492.46
927.439	506.46
927.686	542.46
927.934	537.46
928.181	415.46
928.429	423.46
928.676	502.46
928.923	455.46
929.171	417.46
929.418	534.46
929.666	577.46
929.913	586.46
930.161	390.46
930.408	422.46
930.656	509.46
930.903	565.46
931.151	421.46
931.398	454.46
931.645	578.46
931.893	490.46
932.14	451.46
932.388	472.46
932.635	603.46
932.882	634.46
933.13	505.46
933.377	439.46
933.625	525.46
933.872	439.46
934.119	389.46
934.367	431.46
934.614	429.46
934.861	411.46
935.109	416.46
935.356	480.46
935.603	515.46
935.851	459.46
936.098	381.46
936.345	492.46
936.593	516.46
936.84	454.46
937.087	314.46
937.335	371.46
937.582	458.46
937.829	480.46
938.077	443.46
938.324	417.46
938.571	486.46
938.818	419.46
939.066	377.46
939.313	357.46
939.56	477.46
939.807	494.46
940.055	348.46
940.302	389.46
940.549	543.46
940.796	464.46
941.044	392.46
941.291	419.46
941.538	570.46
941.785	460.46
942.033	406.46
942.28	473.46
942.527	502.46
942.774	462.46
943.021	320.46
943.269	360.46
943.516	463.46
943.763	461.46
944.01	413.46
944.257	484.46
944.504	523.46
944.752	475.46
944.999	425.46
945.246	373.46
945.493	437.46
945.74	427.46
945.987	338.46
946.234	417.46
946.482	491.46
946.729	394.46
946.976	345.46
947.223	360.46
947.47	516.46
947.717	465.46
947.964	484.46
948.211	434.46
948.458	486.46
948.705	418.46
948.952	334.46
949.2	391.46
949.447	547.46
949.694	517.46
949.941	367.46
950.188	346.46
950.435	347.46
950.682	389.46
950.929	282.46
951.176	341.46
951.423	501.46
951.67	478.46
951.917	425.46
952.164	411.46
952.411	463.46
952.658	521.46
952.905	357.46
953.152	311.46
953.399	433.46
953.646	415.46
953.893	305.46
954.14	346.46
954.387	392.46
954.634	357.46
954.881	300.46
955.128	371.46
955.375	364.46
955.622	370.46
955.869	367.46
956.115	322.46
956.362	389.46
956.609	380.46
956.856	309.46
957.103	314.46
957.35	427.46
957.597	437.46
957.844	354.46
958.091	339.46
958.338	421.46
958.585	361.46
958.831	176.46
959.078	255.46
959.325	418.46
959.572	315.46
959.819	223.46
960.066	201.46
960.313	321.46
960.559	322.46
960.806	197.46
961.053	256.46
961.3	415.46
961.547	427.46
961.794	230.46
962.04	389.46
962.287	403.46
962.534	266.46
962.781	249.46
963.028	316.46
963.274	434.46
963.521	341.46
963.768	239.46
964.015	290.46
964.262	434.46
964.508	306.46
964.755	217.46
965.002	226.46
965.249	280.46
965.495	215.46
965.742	189.46
965.989	215.46
966.236	341.46
966.482	270.46
966.729	217.46
966.976	203.46
967.222	247.46
967.469	261.46
967.716	197.46
967.963	209.46
968.209	310.46
968.456	261.46
968.703	161.46
968.949	241.46
969.196	408.46
969.443	422.46
969.689	193.46
969.936	154.46
970.183	264.46
970.429	216.46
970.676	181.46
970.923	255.46
971.169	301.46
971.416	247.46
971.663	197.46
971.909	239.46
972.156	307.46
972.402	299.46
972.649	231.46
972.896	265.46
973.142	283.46
973.389	294.46
973.635	199.46
973.882	300.46
974.129	364.46
974.375	241.46
974.622	154.46
974.868	167.46
975.115	258.46
975.361	197.46
975.608	178.46
975.855	304.46
976.101	341.46
976.348	263.46
976.594	178.46
976.841	242.46
977.087	243.46
977.334	256.46
977.58	126.46
977.827	140.46
978.073	297.46
978.32	259.46
978.566	135.46
978.813	222.46
979.059	232.46
979.306	213.46
979.552	117.46
979.799	201.46
980.045	211.46
980.292	191.46
980.538	124.46
980.785	105.46
981.031	154.46
981.278	137.46
981.524	85.46
981.771	218.46
982.017	367.46
982.263	273.46
982.51	141.46
982.756	205.46
983.003	271.46
983.249	210.46
983.495	136.46
983.742	120.46
983.988	195.46
984.235	225.46
984.481	97.46
984.727	111.46
984.974	249.46
985.22	246.46
985.467	171.46
985.713	167.46
985.959	268.46
986.206	243.46
986.452	154.46
986.698	186.46
986.945	210.46
987.191	258.46
987.437	256.46
987.684	205.46
987.93	344.46
988.176	273.46
988.423	94.46
988.669	177.46
988.915	346.46
989.162	183.46
989.408	70.46
989.654	140.46
989.901	186.46
990.147	181.46
990.393	172.46
990.639	216.46
990.886	230.46
991.132	295.46
991.378	251.46
991.625	358.46
991.871	319.46
992.117	215.46
992.363	159.46
992.61	195.46
992.856	309.46
993.102	167.46
993.348	101.46
993.594	121.46
993.841	173.46
994.087	309.46
994.333	171.46
994.579	146.46
994.826	189.46
995.072	211.46
995.318	16.46
995.564	78.46
995.81	211.46
996.057	158.46
996.303	54.46
996.549	81.46
996.795	179.46
997.041	179.46
997.287	130.46
997.534	113.46
997.78	159.46
998.026	180.46
998.272	75.46
998.518	74.46
998.764	215.46
999.01	230.46
999.256	139.46
999.503	101.46
999.749	128.46
999.995	87.46
1000.241	74.46
1000.487	152.46
1000.733	189.46
1000.979	141.46
1001.225	108.46
1001.471	166.46
1001.718	224.46
1001.964	256.46
1002.21	82.46
1002.456	115.46
1002.702	251.46
1002.948	179.46
1003.194	91.46
1003.44	56.46
1003.686	154.46
1003.932	119.46
1004.178	65.46
1004.424	126.46
1004.67	270.46
1004.916	248.46
1005.162	141.46
1005.408	95.46
1005.654	229.46
1005.9	70.46
1006.146	21.46
1006.392	91.46
1006.638	169.46
1006.884	133.46
1007.13	57.46
1007.376	37.46
1007.622	224.46
1007.868	227.46
1008.114	80.46
1008.36	143.46
1008.606	184.46
1008.852	198.46
1009.098	142.46
1009.344	186.46
1009.59	160.46
1009.836	17.46
1010.082	-51.54
1010.328	73.46
1010.574	157.46
1010.82	54.46
1011.065	-26.54
1011.311	6.46
1011.557	125.46
1011.803	79.46
1012.049	13.46
1012.295	65.46
1012.541	101.46
1012.787	101.46
1013.033	-26.54
1013.278	-17.54
1013.524	109.46
1013.77	168.46
1014.016	68.46
1014.262	70.46
1014.508	199.46
1014.754	42.46
1015	6.46
1015.245	152.46
1015.491	169.46
1015.737	142.46
1015.983	3.46
1016.229	-17.54
1016.475	95.46
1016.72	221.46
1016.966	239.46
1017.212	126.46
1017.458	186.46
1017.704	113.46
1017.949	-17.54
1018.195	155.46
1018.441	241.46
1018.687	200.46
1018.933	54.46
1019.178	44.46
1019.424	197.46
1019.67	215.46
1019.916	8.46
1020.161	45.46
1020.407	111.46
1020.653	69.46
1020.899	2.46
1021.144	72.46
1021.39	163.46
1021.636	49.46
1021.882	-57.54
1022.127	45.46
1022.373	194.46
1022.619	157.46
1022.865	49.46
1023.11	34.46
1023.356	164.46
1023.602	96.46
1023.847	31.46
1024.093	71.46
1024.339	51.46
1024.584	30.46
1024.83	3.46
1025.076	24.46
1025.321	145.46
1025.567	115.46
1025.813	2.46
1026.058	81.46
1026.304	135.46
1026.55	78.46
1026.795	47.46
1027.041	40.46
1027.287	104.46
1027.532	115.46
1027.778	80.46
1028.024	46.46
1028.269	81.46
1028.515	13.46
1028.76	-37.54
1029.006	55.46
1029.252	143.46
1029.497	56.46
1029.743	24.46
1029.989	-24.54
1030.234	122.46
1030.48	182.46
1030.725	-15.54
1030.971	38.46
1031.216	173.46
1031.462	70.46
1031.708	-77.54
1031.953	-18.54
1032.199	70.46
1032.444	60.46
1032.69	0.46
1032.935	23.46
1033.181	138.46
1033.426	21.46
1033.672	-113.54
1033.918	-56.54
1034.163	46.46
1034.409	39.46
1034.654	15.46
1034.9	120.46
1035.145	131.46
1035.391	64.46
1035.636	-54.54
1035.882	24.46
1036.127	22.46
1036.373	-7.54
1036.618	-111.54
1036.864	-24.54
1037.109	133.46
1037.355	41.46
1037.6	-39.54
1037.845	-0.54
1038.091	181.46
1038.336	138.46
1038.582	126.46
1038.827	195.46
1039.073	84.46
1039.318	7.46
1039.564	-102.54
1039.809	-24.54
1040.055	147.46
1040.3	134.46
1040.545	-16.54
1040.791	-37.54
1041.036	30.46
1041.282	41.46
1041.527	108.46
1041.772	-41.54
1042.018	35.46
1042.263	54.46
1042.509	-100.54
1042.754	-56.54
1042.999	69.46
1043.245	45.46
1043.49	-115.54
1043.736	-36.54
1043.981	37.46
1044.226	35.46
1044.472	1.46
1044.717	14.46
1044.962	129.46
1045.208	53.46
1045.453	-179.54
1045.698	-100.54
1045.944	109.46
1046.189	64.46
1046.434	-51.54
1046.68	-31.54
1046.925	150.46
1047.17	12.46
1047.416	-162.54
1047.661	-61.54
1047.906	76.46
1048.152	57.46
1048.397	-25.54
1048.642	-28.54
1048.887	139.46
1049.133	131.46
1049.378	-29.54
1049.623	-34.54
1049.869	76.46
1050.114	0.46
1050.359	-72.54
1050.604	-2.54
1050.85	149.46
1051.095	21.46
1051.34	-77.54
1051.585	-3.54
1051.831	165.46
1052.076	19.46
1052.321	-173.54
1052.566	-70.54
1052.812	114.46
1053.057	29.46
1053.302	-53.54
1053.547	52.46
1053.792	94.46
1054.038	75.46
1054.283	-114.54
1054.528	-23.54
1054.773	46.46
1055.018	43.46
1055.264	-66.54
1055.509	-99.54
1055.754	34.46
1055.999	-32.54
1056.244	-113.54
1056.49	-46.54
1056.735	58.46
1056.98	-13.54
1057.225	-119.54
1057.47	71.46
1057.715	10.46
1057.96	-73.54
1058.206	-108.54
1058.451	-2.54
1058.696	117.46
1058.941	55.46
1059.186	-114.54
1059.431	-85.54
1059.676	113.46
1059.922	56.46
1060.167	124.46
1060.412	297.46
1060.657	80.46
1060.902	36.46
1061.147	-154.54
1061.392	-86.54
1061.637	43.46
1061.882	-21.54
1062.127	-150.54
1062.373	-117.54
1062.618	141.46
1062.863	151.46
1063.108	-54.54
1063.353	-106.54
1063.598	-6.54
1063.843	-24.54
1064.088	-101.54
1064.333	-92.54
1064.578	66.46
1064.823	68.46
1065.068	-169.54
1065.313	-101.54
1065.558	63.46
1065.803	60.46
1066.048	-148.54
1066.293	-124.54
1066.538	107.46
1066.783	34.46
1067.028	-169.54
1067.273	-155.54
1067.518	23.46
1067.763	-19.54
1068.008	-165.54
1068.253	-96.54
1068.498	85.46
1068.743	8.46
1068.988	-145.54
1069.233	-122.54
1069.478	87.46
1069.723	136.46
1069.968	-72.54
1070.213	-27.54
1070.458	89.46
1070.703	-2.54
1070.948	-182.54
1071.193	-65.54
1071.438	73.46
1071.683	87.46
1071.928	-53.54
1072.173	-62.54
1072.418	21.46
1072.663	-3.54
1072.908	-141.54
1073.152	-70.54
1073.397	85.46
1073.642	-27.54
1073.887	-77.54
1074.132	49.46
1074.377	44.46
1074.622	5.46
1074.867	-126.54
1075.112	-36.54
1075.357	139.46
1075.601	-7.54
1075.846	-67.54
1076.091	21.46
1076.336	77.46
1076.581	-58.54
1076.826	-166.54
1077.071	-75.54
1077.315	178.46
1077.56	109.46
1077.805	-117.54
1078.05	-81.54
1078.295	-4.54
1078.54	-45.54
1078.785	-164.54
1079.029	-83.54
1079.274	77.46
1079.519	-54.54
1079.764	-144.54
1080.009	-44.54
1080.253	28.46
1080.498	-57.54
1080.743	-206.54
1080.988	-53.54
1081.233	161.46
1081.478	79.46
1081.722	-108.54
1081.967	-6.54
1082.212	162.46
1082.457	35.46
1082.701	-105.54
1082.946	-67.54
1083.191	63.46
1083.436	-41.54
1083.681	-186.54
1083.925	-87.54
1084.17	11.46
1084.415	24.46
1084.66	-170.54
1084.904	-68.54
1085.149	4.46
1085.394	-21.54
1085.639	-182.54
1085.883	-90.54
1086.128	153.46
1086.373	160.46
1086.617	-73.54
1086.862	-134.54
1087.107	-10.54
1087.352	-79.54
1087.596	-162.54
1087.841	-16.54
1088.086	30.46
1088.33	15.46
1088.575	-213.54
1088.82	-83.54
1089.064	86.46
1089.309	-70.54
1089.554	-186.54
1089.798	-141.54
1090.043	61.46
1090.288	-0.54
1090.533	-195.54
1090.777	-125.54
1091.022	25.46
1091.266	50.46
1091.511	-110.54
1091.756	-34.54
1092	116.46
1092.245	103.46
1092.49	-148.54
1092.734	-92.54
1092.979	89.46
1093.224	-11.54
1093.468	-156.54
1093.713	-73.54
1093.957	28.46
1094.202	-32.54
1094.447	-202.54
1094.691	-97.54
1094.936	45.46
1095.181	22.46
1095.425	-162.54
1095.67	-144.54
1095.914	26.46
1096.159	24.46
1096.403	-135.54
1096.648	-54.54
1096.893	64.46
1097.137	-81.54
1097.382	-227.54
1097.626	-151.54
1097.871	4.46
1098.115	-39.54
1098.36	-196.54
1098.605	-98.54
1098.849	-25.54
1099.094	-90.54
1099.338	-183.54
1099.583	-89.54
1099.827	150.46
1100.072	39.46
1100.316	-157.54
1100.561	-99.54
1100.805	57.46
1101.05	30.46
1101.294	-164.54
1101.539	-155.54
1101.783	2.46
1102.028	13.46
1102.273	-132.54
1102.517	-69.54
1102.761	63.46
1103.006	-58.54
1103.25	-266.54
1103.495	-164.54
1103.739	43.46
1103.984	89.46
1104.228	-111.54
1104.473	-34.54
1104.717	22.46
1104.962	-9.54
1105.206	-116.54
1105.451	-151.54
1105.695	10.46
1105.94	-14.54
1106.184	-159.54
1106.429	-98.54
1106.673	10.46
1106.917	68.46
1107.162	-163.54
1107.406	-15.54
1107.651	123.46
1107.895	-80.54
1108.14	-187.54
1108.384	-87.54
1108.628	105.46
1108.873	112.46
1109.117	-130.54
1109.362	-113.54
1109.606	-31.54
1109.85	-18.54
1110.095	-170.54
1110.339	-96.54
1110.584	99.46
1110.828	45.46
1111.072	-95.54
1111.317	-120.54
1111.561	-27.54
1111.806	-49.54
1112.05	-188.54
1112.294	-83.54
1112.539	37.46
1112.783	-0.54
1113.027	-117.54
1113.272	-120.54
1113.516	-24.54
1113.76	-51.54
1114.005	-149.54
1114.249	-76.54
1114.493	86.46
1114.738	98.46
1114.982	-40.54
1115.226	-83.54
1115.471	-1.54
1115.715	-22.54
1115.959	-188.54
1116.204	-175.54
1116.448	-5.54
1116.692	-82.54
1116.937	-172.54
1117.181	-24.54
1117.425	-29.54
1117.67	-66.54
1117.914	-139.54
1118.158	-100.54
1118.402	139.46
1118.647	54.46
1118.891	-102.54
1119.135	-38.54
1119.38	102.46
1119.624	23.46
1119.868	-139.54
1120.112	-145.54
1120.357	-60.54
1120.601	-115.54
1120.845	-213.54
1121.089	-144.54
1121.334	29.46
