Data from HR4C21111__0__09-39-19-848.txt Node

Date: Mon Feb 22 09:39:19 IST 2021
User: Kapil
Spectrometer: HR4C2111
Trigger mode: 4
Integration Time (sec): 2.300000E0
Scans to average: 1
Electric dark correction enabled: true
Nonlinearity correction enabled: false
Boxcar width: 0
XAxis mode: Wavelengths
Number of Pixels in Spectrum: 3648
>>>>>Begin Spectral Data<<<<<
189.472	-422.85
189.745	-422.85
190.017	-422.85
190.289	-444.85
190.561	-294.85
190.834	-30.85
191.106	-124.85
191.378	2.15
191.65	1.15
191.923	-139.85
192.195	-95.85
192.467	130.15
192.739	111.15
193.011	-13.85
193.284	106.15
193.556	179.15
193.828	-14.85
194.1	-109.85
194.372	-116.85
194.644	60.15
194.916	56.15
195.188	-153.85
195.46	-75.85
195.732	36.15
196.004	-12.85
196.276	-114.85
196.548	-70.85
196.82	70.15
197.092	73.15
197.364	-120.85
197.636	-81.85
197.908	27.15
198.18	-32.85
198.452	-80.85
198.724	-42.85
198.996	49.15
199.268	76.15
199.54	-36.85
199.811	-113.85
200.083	98.15
200.355	30.15
200.627	-179.85
200.899	-63.85
201.171	41.15
201.442	-61.85
201.714	-180.85
201.986	-89.85
202.258	59.15
202.529	116.15
202.801	-2.85
203.073	71.15
203.345	190.15
203.616	27.15
203.888	-127.85
204.16	-128.85
204.431	87.15
204.703	-9.85
204.974	-118.85
205.246	-0.85
205.518	180.15
205.789	10.15
206.061	-120.85
206.332	-93.85
206.604	27.15
206.876	96.15
207.147	115.15
207.419	19.15
207.69	146.15
207.962	-18.85
208.233	-184.85
208.505	15.15
208.776	173.15
209.047	90.15
209.319	-121.85
209.59	-89.85
209.862	137.15
210.133	60.15
210.404	-137.85
210.676	-98.85
210.947	91.15
211.219	64.15
211.49	-109.85
211.761	-40.85
212.033	44.15
212.304	-30.85
212.575	-166.85
212.846	-69.85
213.118	39.15
213.389	-46.85
213.66	-88.85
213.931	-33.85
214.203	39.15
214.474	-21.85
214.745	-111.85
215.016	152.15
215.287	437.15
215.559	47.15
215.83	-112.85
216.101	-53.85
216.372	20.15
216.643	83.15
216.914	4.15
217.185	-68.85
217.456	168.15
217.727	27.15
217.998	-157.85
218.269	-54.85
218.54	35.15
218.811	-9.85
219.082	-106.85
219.353	-77.85
219.624	-3.85
219.895	-27.85
220.166	-126.85
220.437	-92.85
220.708	119.15
220.979	-0.85
221.25	-143.85
221.521	-89.85
221.792	45.15
222.063	73.15
222.334	23.15
222.604	161.15
222.875	155.15
223.146	87.15
223.417	-153.85
223.688	-24.85
223.958	117.15
224.229	-46.85
224.5	-183.85
224.771	-63.85
225.041	83.15
225.312	61.15
225.583	-82.85
225.854	-37.85
226.124	109.15
226.395	-1.85
226.666	-135.85
226.936	-98.85
227.207	74.15
227.478	-32.85
227.748	-88.85
228.019	43.15
228.289	255.15
228.56	-30.85
228.831	-49.85
229.101	58.15
229.372	73.15
229.642	-11.85
229.913	-148.85
230.183	-114.85
230.454	12.15
230.724	14.15
230.995	-108.85
231.265	-57.85
231.536	85.15
231.806	57.15
232.076	-107.85
232.347	-134.85
232.617	28.15
232.888	35.15
233.158	-56.85
233.428	-110.85
233.699	-5.85
233.969	-41.85
234.239	-152.85
234.51	-80.85
234.78	48.15
235.05	-15.85
235.321	-115.85
235.591	-61.85
235.861	63.15
236.131	-49.85
236.402	-179.85
236.672	-91.85
236.942	54.15
237.212	41.15
237.483	-65.85
237.753	0.15
238.023	160.15
238.293	14.15
238.563	-61.85
238.833	-83.85
239.103	74.15
239.374	-21.85
239.644	-138.85
239.914	-25.85
240.184	131.15
240.454	-8.85
240.724	-175.85
240.994	-78.85
241.264	28.15
241.534	50.15
241.804	-22.85
242.074	-93.85
242.344	-26.85
242.614	-43.85
242.884	-175.85
243.154	-124.85
243.424	49.15
243.694	84.15
243.964	-82.85
244.234	-58.85
244.503	144.15
244.773	19.15
245.043	-209.85
245.313	-113.85
245.583	125.15
245.853	82.15
246.123	-159.85
246.392	-96.85
246.662	9.15
246.932	-9.85
247.202	-160.85
247.471	-61.85
247.741	257.15
248.011	111.15
248.281	-135.85
248.55	-85.85
248.82	74.15
249.09	-1.85
249.359	-98.85
249.629	-77.85
249.899	57.15
250.168	63.15
250.438	-24.85
250.708	-97.85
250.977	86.15
251.247	55.15
251.516	-111.85
251.786	-33.85
252.055	127.15
252.325	23.15
252.595	-100.85
252.864	-57.85
253.134	56.15
253.403	-29.85
253.673	-153.85
253.942	-95.85
254.212	50.15
254.481	-0.85
254.75	-133.85
255.02	-67.85
255.289	83.15
255.559	-8.85
255.828	-116.85
256.097	-21.85
256.367	34.15
256.636	-57.85
256.906	-123.85
257.175	-16.85
257.444	238.15
257.714	61.15
257.983	-72.85
258.252	-35.85
258.521	6.15
258.791	31.15
259.06	-110.85
259.329	-57.85
259.598	69.15
259.868	-1.85
260.137	-103.85
260.406	29.15
260.675	89.15
260.944	25.15
261.214	-132.85
261.483	-40.85
261.752	185.15
262.021	24.15
262.29	-142.85
262.559	-110.85
262.828	25.15
263.097	-39.85
263.366	-193.85
263.635	-82.85
263.905	131.15
264.174	20.15
264.443	-190.85
264.712	-97.85
264.981	49.15
265.25	-47.85
265.519	-146.85
265.788	-136.85
266.057	47.15
266.325	52.15
266.594	-48.85
266.863	-104.85
267.132	29.15
267.401	20.15
267.67	-184.85
267.939	-134.85
268.208	30.15
268.477	67.15
268.745	-116.85
269.014	-88.85
269.283	135.15
269.552	58.15
269.821	-106.85
270.089	-17.85
270.358	12.15
270.627	-25.85
270.896	-140.85
271.164	-157.85
271.433	31.15
271.702	81.15
271.971	-147.85
272.239	-136.85
272.508	21.15
272.777	-25.85
273.045	-19.85
273.314	-21.85
273.583	107.15
273.851	6.15
274.12	-139.85
274.388	-115.85
274.657	-1.85
274.926	8.15
275.194	-152.85
275.463	-56.85
275.731	41.15
276	185.15
276.268	376.15
276.537	-61.85
276.805	41.15
277.074	40.15
277.342	-147.85
277.611	-97.85
277.879	111.15
278.148	30.15
278.416	-136.85
278.684	-111.85
278.953	-10.85
279.221	-34.85
279.49	-175.85
279.758	-81.85
280.026	16.15
280.295	0.15
280.563	-128.85
280.831	223.15
281.1	793.15
281.368	102.15
281.636	-94.85
281.904	-104.85
282.173	4.15
282.441	-39.85
282.709	-74.85
282.977	35.15
283.246	51.15
283.514	-27.85
283.782	-60.85
284.05	19.15
284.318	77.15
284.587	-13.85
284.855	-104.85
285.123	-40.85
285.391	70.15
285.659	50.15
285.927	-143.85
286.195	-64.85
286.463	64.15
286.732	2.15
287	-110.85
287.268	-54.85
287.536	39.15
287.804	-43.85
288.072	-130.85
288.34	-66.85
288.608	74.15
288.876	-25.85
289.144	-125.85
289.412	-18.85
289.68	57.15
289.948	-16.85
290.215	-89.85
290.483	-83.85
290.751	103.15
291.019	92.15
291.287	-167.85
291.555	-109.85
291.823	31.15
292.091	-6.85
292.358	-64.85
292.626	-6.85
292.894	85.15
293.162	67.15
293.43	-94.85
293.697	-70.85
293.965	74.15
294.233	-16.85
294.501	-163.85
294.768	-62.85
295.036	80.15
295.304	38.15
295.572	-131.85
295.839	-96.85
296.107	117.15
296.375	7.15
296.642	-124.85
296.91	-103.85
297.178	63.15
297.445	175.15
297.713	99.15
297.98	-77.85
298.248	-16.85
298.516	-40.85
298.783	-124.85
299.051	-106.85
299.318	36.15
299.586	-32.85
299.853	-84.85
300.121	-70.85
300.388	48.15
300.656	-3.85
300.923	-127.85
301.191	-32.85
301.458	66.15
301.726	-0.85
301.993	-136.85
302.26	-88.85
302.528	39.15
302.795	4.15
303.063	-64.85
303.33	-54.85
303.597	39.15
303.865	18.15
304.132	-119.85
304.399	-113.85
304.667	-24.85
304.934	15.15
305.201	-99.85
305.469	-11.85
305.736	50.15
306.003	37.15
306.27	-58.85
306.538	-105.85
306.805	2.15
307.072	-18.85
307.339	-71.85
307.606	-38.85
307.874	170.15
308.141	77.15
308.408	-137.85
308.675	-105.85
308.942	-38.85
309.209	-62.85
309.477	-124.85
309.744	-85.85
310.011	32.15
310.278	50.15
310.545	-5.85
310.812	-33.85
311.079	135.15
311.346	192.15
311.613	63.15
311.88	-24.85
312.147	-53.85
312.414	-34.85
312.681	-112.85
312.948	-33.85
313.215	105.15
313.482	97.15
313.749	-90.85
314.016	-187.85
314.283	-43.85
314.55	65.15
314.817	-83.85
315.083	-108.85
315.35	-60.85
315.617	-116.85
315.884	-127.85
316.151	72.15
316.418	181.15
316.684	-8.85
316.951	-188.85
317.218	-111.85
317.485	-0.85
317.752	-57.85
318.018	-114.85
318.285	-19.85
318.552	29.15
318.819	-47.85
319.085	-127.85
319.352	-43.85
319.619	53.15
319.885	-22.85
320.152	-184.85
320.419	-91.85
320.685	29.15
320.952	-22.85
321.219	-66.85
321.485	50.15
321.752	11.15
322.019	-65.85
322.285	22.15
322.552	-6.85
322.818	125.15
323.085	-16.85
323.351	-122.85
323.618	-19.85
323.884	47.15
324.151	-57.85
324.417	-26.85
324.684	-65.85
324.95	-41.85
325.217	-132.85
325.483	-170.85
325.75	-25.85
326.016	20.15
326.283	-16.85
326.549	-179.85
326.815	-74.85
327.082	96.15
327.348	26.15
327.615	-93.85
327.881	-13.85
328.147	136.15
328.414	131.15
328.68	23.15
328.946	-25.85
329.212	46.15
329.479	14.15
329.745	-108.85
330.011	-92.85
330.278	25.15
330.544	-38.85
330.81	-24.85
331.076	-33.85
331.342	-32.85
331.609	-33.85
331.875	-93.85
332.141	-79.85
332.407	33.15
332.673	-3.85
332.94	-2.85
333.206	-22.85
333.472	59.15
333.738	59.15
334.004	-110.85
334.27	-17.85
334.536	11.15
334.802	-33.85
335.068	-82.85
335.334	15.15
335.6	37.15
335.866	-17.85
336.132	-146.85
336.398	-79.85
336.664	-23.85
336.93	-49.85
337.196	-77.85
337.462	8.15
337.728	47.15
337.994	-36.85
338.26	-78.85
338.526	-36.85
338.792	-30.85
339.058	-18.85
339.324	-126.85
339.59	-6.85
339.856	68.15
340.121	-40.85
340.387	-111.85
340.653	88.15
340.919	165.15
341.185	51.15
341.45	-66.85
341.716	36.15
341.982	121.15
342.248	-52.85
342.514	-77.85
342.779	13.15
343.045	29.15
343.311	-8.85
343.576	-86.85
343.842	-30.85
344.108	133.15
344.374	23.15
344.639	-94.85
344.905	-82.85
345.171	58.15
345.436	-53.85
345.702	-108.85
345.967	42.15
346.233	80.15
346.499	25.15
346.764	-163.85
347.03	-67.85
347.295	-16.85
347.561	19.15
347.826	-38.85
348.092	-103.85
348.357	-13.85
348.623	-21.85
348.888	-114.85
349.154	-64.85
349.419	63.15
349.685	10.15
349.95	-63.85
350.216	-33.85
350.481	65.15
350.747	-43.85
351.012	-168.85
351.277	-91.85
351.543	42.15
351.808	-9.85
352.074	-181.85
352.339	-124.85
352.604	65.15
352.87	34.15
353.135	-92.85
353.4	-55.85
353.666	6.15
353.931	-25.85
354.196	-150.85
354.461	-112.85
354.727	61.15
354.992	31.15
355.257	-115.85
355.522	-15.85
355.788	20.15
356.053	87.15
356.318	-45.85
356.583	-57.85
356.848	122.15
357.113	242.15
357.379	-24.85
357.644	-74.85
357.909	105.15
358.174	158.15
358.439	-100.85
358.704	-35.85
358.969	103.15
359.234	111.15
359.499	-63.85
359.765	0.15
360.03	117.15
360.295	110.15
360.56	-58.85
360.825	12.15
361.09	229.15
361.355	57.15
361.62	17.15
361.885	64.15
362.15	38.15
362.415	46.15
362.679	-1.85
362.944	140.15
363.209	158.15
363.474	173.15
363.739	105.15
364.004	14.15
364.269	94.15
364.534	143.15
364.799	103.15
365.063	104.15
365.328	198.15
365.593	190.15
365.858	68.15
366.123	88.15
366.387	223.15
366.652	145.15
366.917	48.15
367.182	133.15
367.447	256.15
367.711	206.15
367.976	148.15
368.241	222.15
368.505	288.15
368.77	201.15
369.035	187.15
369.299	232.15
369.564	277.15
369.829	212.15
370.093	186.15
370.358	191.15
370.623	291.15
370.887	309.15
371.152	185.15
371.416	270.15
371.681	328.15
371.946	233.15
372.21	215.15
372.475	340.15
372.739	378.15
373.004	326.15
373.268	299.15
373.533	368.15
373.797	421.15
374.062	426.15
374.326	286.15
374.591	385.15
374.855	489.15
375.12	403.15
375.384	251.15
375.648	368.15
375.913	516.15
376.177	545.15
376.442	408.15
376.706	435.15
376.97	572.15
377.235	528.15
377.499	515.15
377.763	545.15
378.028	520.15
378.292	568.15
378.556	505.15
378.821	464.15
379.085	565.15
379.349	522.15
379.614	471.15
379.878	610.15
380.142	786.15
380.406	700.15
380.671	714.15
380.935	853.15
381.199	958.15
381.463	859.15
381.727	804.15
381.991	781.15
382.256	868.15
382.52	838.15
382.784	858.15
383.048	982.15
383.312	935.15
383.576	919.15
383.84	839.15
384.104	937.15
384.369	1044.15
384.633	963.15
384.897	851.15
385.161	994.15
385.425	1126.15
385.689	1039.15
385.953	1018.15
386.217	1039.15
386.481	1150.15
386.745	1187.15
387.009	1142.15
387.273	1127.15
387.537	1192.15
387.801	1261.15
388.064	1188.15
388.328	1287.15
388.592	1356.15
388.856	1302.15
389.12	1279.15
389.384	1370.15
389.648	1393.15
389.912	1483.15
390.176	1495.15
390.439	1589.15
390.703	1457.15
390.967	1451.15
391.231	1410.15
391.495	1491.15
391.758	1563.15
392.022	1586.15
392.286	1488.15
392.55	1522.15
392.813	1659.15
393.077	1730.15
393.341	1666.15
393.605	1735.15
393.868	1725.15
394.132	1747.15
394.396	1713.15
394.659	1849.15
394.923	1814.15
395.187	1745.15
395.45	1817.15
395.714	1877.15
395.978	1891.15
396.241	1890.15
396.505	1854.15
396.768	1954.15
397.032	2049.15
397.295	2048.15
397.559	1967.15
397.823	1938.15
398.086	2084.15
398.35	2032.15
398.613	1941.15
398.877	2070.15
399.14	2227.15
399.404	2273.15
399.667	2195.15
399.931	2155.15
400.194	2273.15
400.457	2264.15
400.721	2251.15
400.984	2341.15
401.248	2322.15
401.511	2318.15
401.775	2209.15
402.038	2250.15
402.301	2450.15
402.565	2427.15
402.828	2247.15
403.091	2357.15
403.355	2557.15
403.618	2542.15
403.881	2503.15
404.145	2555.15
404.408	2602.15
404.671	2559.15
404.934	2611.15
405.198	2666.15
405.461	2660.15
405.724	2721.15
405.987	2728.15
406.251	2793.15
406.514	2882.15
406.777	2770.15
407.04	2688.15
407.303	2669.15
407.567	2857.15
407.83	2937.15
408.093	2746.15
408.356	2876.15
408.619	2963.15
408.882	3029.15
409.145	2983.15
409.408	2937.15
409.672	2983.15
409.935	2935.15
410.198	2816.15
410.461	2927.15
410.724	3165.15
410.987	3089.15
411.25	2881.15
411.513	3050.15
411.776	3118.15
412.039	3007.15
412.302	2983.15
412.565	3039.15
412.828	3043.15
413.091	3081.15
413.354	3011.15
413.617	3003.15
413.879	3072.15
414.142	3109.15
414.405	2932.15
414.668	2975.15
414.931	3113.15
415.194	3074.15
415.457	2939.15
415.72	3026.15
415.983	3021.15
416.245	3067.15
416.508	2952.15
416.771	2906.15
417.034	3074.15
417.297	3051.15
417.559	3003.15
417.822	2971.15
418.085	3072.15
418.348	3065.15
418.61	2960.15
418.873	2970.15
419.136	2992.15
419.399	3002.15
419.661	3042.15
419.924	2993.15
420.187	3098.15
420.449	3108.15
420.712	3015.15
420.975	3006.15
421.237	3103.15
421.5	3125.15
421.762	3188.15
422.025	3217.15
422.288	3279.15
422.55	3104.15
422.813	3018.15
423.075	3135.15
423.338	3246.15
423.601	3292.15
423.863	3254.15
424.126	3270.15
424.388	3365.15
424.651	3336.15
424.913	3323.15
425.176	3315.15
425.438	3331.15
425.701	3339.15
425.963	3250.15
426.225	3280.15
426.488	3348.15
426.75	3318.15
427.013	3299.15
427.275	3371.15
427.538	3423.15
427.8	3448.15
428.062	3330.15
428.325	3357.15
428.587	3444.15
428.849	3469.15
429.112	3489.15
429.374	3419.15
429.636	3436.15
429.899	3561.15
430.161	3470.15
430.423	3530.15
430.686	3714.15
430.948	3681.15
431.21	3497.15
431.472	3424.15
431.735	3570.15
431.997	3611.15
432.259	3609.15
432.521	3499.15
432.783	3628.15
433.046	3629.15
433.308	3526.15
433.57	3538.15
433.832	3753.15
434.094	3619.15
434.356	3481.15
434.618	3587.15
434.881	3714.15
435.143	3778.15
435.405	3750.15
435.667	3657.15
435.929	3677.15
436.191	3723.15
436.453	3684.15
436.715	3782.15
436.977	3875.15
437.239	3929.15
437.501	3816.15
437.763	3809.15
438.025	3874.15
438.287	3830.15
438.549	3840.15
438.811	3801.15
439.073	3804.15
439.335	3803.15
439.597	3761.15
439.859	3754.15
440.121	3896.15
440.383	3798.15
440.645	3779.15
440.907	3850.15
441.168	3877.15
441.43	3859.15
441.692	3889.15
441.954	3913.15
442.216	3949.15
442.478	3931.15
442.74	3806.15
443.001	3912.15
443.263	4070.15
443.525	3909.15
443.787	3791.15
444.048	3825.15
444.31	3877.15
444.572	3933.15
444.834	3871.15
445.095	3863.15
445.357	4036.15
445.619	3857.15
445.881	3746.15
446.142	3865.15
446.404	3836.15
446.666	3882.15
446.927	3920.15
447.189	4037.15
447.451	4096.15
447.712	3926.15
447.974	3766.15
448.235	3787.15
448.497	3880.15
448.759	3837.15
449.02	3862.15
449.282	3789.15
449.543	3928.15
449.805	4005.15
450.066	3776.15
450.328	3867.15
450.59	4055.15
450.851	3868.15
451.113	3756.15
451.374	3763.15
451.636	4008.15
451.897	4077.15
452.158	3930.15
452.42	3985.15
452.681	4035.15
452.943	3873.15
453.204	3818.15
453.466	3828.15
453.727	3855.15
453.988	3930.15
454.25	3846.15
454.511	3868.15
454.773	3934.15
455.034	4076.15
455.295	3837.15
455.557	3963.15
455.818	4003.15
456.079	3973.15
456.341	4066.15
456.602	4123.15
456.863	4143.15
457.124	3989.15
457.386	3885.15
457.647	3921.15
457.908	3989.15
458.169	4114.15
458.431	3938.15
458.692	4013.15
458.953	4050.15
459.214	4034.15
459.476	4174.15
459.737	4256.15
459.998	4269.15
460.259	4149.15
460.52	4090.15
460.781	4285.15
461.043	4424.15
461.304	4285.15
461.565	4130.15
461.826	4166.15
462.087	4335.15
462.348	4461.15
462.609	4406.15
462.87	4391.15
463.131	4340.15
463.392	4497.15
463.653	4513.15
463.914	4532.15
464.175	4559.15
464.436	4556.15
464.697	4541.15
464.958	4447.15
465.219	4506.15
465.48	4599.15
465.741	4581.15
466.002	4486.15
466.263	4749.15
466.524	4780.15
466.785	4621.15
467.046	4675.15
467.307	4881.15
467.568	4950.15
467.829	4887.15
468.089	4925.15
468.35	4982.15
468.611	4870.15
468.872	4807.15
469.133	4985.15
469.394	5210.15
469.655	5307.15
469.915	5167.15
470.176	5004.15
470.437	5094.15
470.698	5279.15
470.958	5250.15
471.219	5263.15
471.48	5473.15
471.741	5550.15
472.001	5536.15
472.262	5481.15
472.523	5681.15
472.784	5841.15
473.044	5727.15
473.305	5760.15
473.566	5775.15
473.826	5844.15
474.087	5774.15
474.348	5876.15
474.608	6079.15
474.869	6059.15
475.129	5914.15
475.39	6018.15
475.651	6202.15
475.911	6337.15
476.172	6222.15
476.432	6319.15
476.693	6540.15
476.953	6456.15
477.214	6439.15
477.475	6549.15
477.735	6565.15
477.996	6674.15
478.256	6541.15
478.517	6640.15
478.777	6819.15
479.038	6938.15
479.298	6975.15
479.558	7088.15
479.819	7166.15
480.079	7095.15
480.34	7143.15
480.6	7136.15
480.861	7326.15
481.121	7341.15
481.381	7290.15
481.642	7364.15
481.902	7381.15
482.162	7403.15
482.423	7461.15
482.683	7606.15
482.943	7627.15
483.204	7640.15
483.464	7613.15
483.724	7616.15
483.985	7735.15
484.245	7855.15
484.505	7798.15
484.765	7872.15
485.026	7943.15
485.286	8086.15
485.546	8049.15
485.806	8073.15
486.067	8104.15
486.327	8074.15
486.587	8019.15
486.847	8105.15
487.107	8231.15
487.368	8276.15
487.628	8216.15
487.888	8281.15
488.148	8388.15
488.408	8339.15
488.668	8364.15
488.928	8339.15
489.188	8392.15
489.449	8483.15
489.709	8332.15
489.969	8401.15
490.229	8569.15
490.489	8602.15
490.749	8508.15
491.009	8406.15
491.269	8540.15
491.529	8554.15
491.789	8527.15
492.049	8673.15
492.309	8757.15
492.569	8654.15
492.829	8616.15
493.089	8622.15
493.349	8775.15
493.609	8695.15
493.869	8554.15
494.129	8698.15
494.389	8777.15
494.648	8658.15
494.908	8639.15
495.168	8725.15
495.428	8865.15
495.688	8793.15
495.948	8696.15
496.208	8664.15
496.467	8745.15
496.727	8766.15
496.987	8789.15
497.247	8834.15
497.507	8874.15
497.767	8902.15
498.026	8705.15
498.286	8867.15
498.546	9072.15
498.806	8935.15
499.065	8935.15
499.325	8875.15
499.585	8897.15
499.845	8806.15
500.104	8846.15
500.364	8958.15
500.624	8973.15
500.883	8885.15
501.143	8866.15
501.403	8947.15
501.662	9050.15
501.922	9006.15
502.182	8803.15
502.441	8826.15
502.701	8919.15
502.96	9007.15
503.22	8840.15
503.48	8832.15
503.739	8956.15
503.999	8898.15
504.258	8820.15
504.518	8880.15
504.777	8963.15
505.037	8980.15
505.296	8885.15
505.556	8849.15
505.815	8979.15
506.075	9082.15
506.334	9006.15
506.594	8783.15
506.853	8917.15
507.113	8958.15
507.372	8756.15
507.632	8801.15
507.891	8882.15
508.151	8935.15
508.41	8756.15
508.669	8784.15
508.929	8876.15
509.188	8856.15
509.447	8824.15
509.707	8771.15
509.966	8906.15
510.226	8928.15
510.485	8895.15
510.744	8950.15
511.004	8962.15
511.263	8854.15
511.522	8793.15
511.781	8798.15
512.041	8909.15
512.3	8940.15
512.559	8948.15
512.818	8889.15
513.078	8907.15
513.337	8917.15
513.596	8772.15
513.855	8863.15
514.115	8995.15
514.374	8912.15
514.633	8801.15
514.892	8846.15
515.151	9029.15
515.41	9031.15
515.67	8888.15
515.929	8872.15
516.188	9008.15
516.447	8914.15
516.706	8873.15
516.965	8931.15
517.224	8989.15
517.483	8936.15
517.743	8870.15
518.002	8944.15
518.261	9038.15
518.52	9007.15
518.779	8900.15
519.038	8886.15
519.297	8952.15
519.556	8924.15
519.815	8879.15
520.074	8891.15
520.333	9002.15
520.592	8964.15
520.851	8869.15
521.11	8981.15
521.369	9123.15
521.628	8975.15
521.887	8903.15
522.145	8974.15
522.404	8947.15
522.663	8983.15
522.922	8867.15
523.181	8870.15
523.44	9028.15
523.699	9043.15
523.958	8834.15
524.217	8844.15
524.475	8915.15
524.734	8921.15
524.993	8888.15
525.252	8897.15
525.511	8958.15
525.769	8917.15
526.028	8825.15
526.287	8897.15
526.546	8909.15
526.805	8893.15
527.063	8777.15
527.322	8766.15
527.581	8858.15
527.839	8841.15
528.098	8843.15
528.357	8849.15
528.616	8863.15
528.874	8818.15
529.133	8751.15
529.392	8822.15
529.65	8850.15
529.909	8790.15
530.168	8684.15
530.426	8743.15
530.685	8925.15
530.943	8872.15
531.202	8742.15
531.461	8779.15
531.719	8873.15
531.978	8828.15
532.236	8743.15
532.495	8802.15
532.753	8874.15
533.012	8853.15
533.271	8732.15
533.529	8689.15
533.788	8779.15
534.046	8738.15
534.305	8721.15
534.563	8889.15
534.822	8915.15
535.08	8829.15
535.338	8742.15
535.597	8787.15
535.855	8872.15
536.114	8785.15
536.372	8750.15
536.631	8830.15
536.889	8875.15
537.147	8851.15
537.406	8673.15
537.664	8848.15
537.923	8909.15
538.181	8911.15
538.439	8726.15
538.698	8870.15
538.956	8882.15
539.214	8835.15
539.473	8803.15
539.731	8887.15
539.989	9005.15
540.248	8974.15
540.506	8910.15
540.764	8955.15
541.022	9018.15
541.281	9057.15
541.539	8996.15
541.797	8978.15
542.055	9047.15
542.314	9110.15
542.572	9099.15
542.83	9045.15
543.088	9085.15
543.346	9060.15
543.604	9085.15
543.863	9153.15
544.121	9202.15
544.379	9207.15
544.637	9169.15
544.895	9286.15
545.153	9399.15
545.411	9262.15
545.67	9149.15
545.928	9190.15
546.186	9345.15
546.444	9443.15
546.702	9347.15
546.96	9417.15
547.218	9531.15
547.476	9463.15
547.734	9344.15
547.992	9511.15
548.25	9695.15
548.508	9604.15
548.766	9541.15
549.024	9544.15
549.282	9648.15
549.54	9739.15
549.798	9707.15
550.056	9710.15
550.314	9856.15
550.572	9869.15
550.83	9758.15
551.088	9869.15
551.346	9987.15
551.603	10011.15
551.861	9946.15
552.119	10052.15
552.377	10130.15
552.635	10040.15
552.893	9968.15
553.151	10041.15
553.409	10177.15
553.666	10161.15
553.924	10114.15
554.182	10103.15
554.44	10211.15
554.698	10319.15
554.955	10200.15
555.213	10234.15
555.471	10438.15
555.729	10399.15
555.986	10267.15
556.244	10361.15
556.502	10534.15
556.76	10442.15
557.017	10411.15
557.275	10447.15
557.533	10629.15
557.79	10636.15
558.048	10473.15
558.306	10534.15
558.563	10676.15
558.821	10619.15
559.079	10583.15
559.336	10667.15
559.594	10691.15
559.852	10615.15
560.109	10563.15
560.367	10731.15
560.624	10791.15
560.882	10703.15
561.14	10770.15
561.397	10865.15
561.655	10755.15
561.912	10795.15
562.17	10759.15
562.427	10785.15
562.685	10882.15
562.942	10837.15
563.2	10786.15
563.457	10844.15
563.715	10879.15
563.972	10911.15
564.23	10695.15
564.487	10692.15
564.745	10799.15
565.002	10852.15
565.26	10751.15
565.517	10665.15
565.774	10710.15
566.032	10743.15
566.289	10695.15
566.547	10773.15
566.804	10875.15
567.061	10816.15
567.319	10675.15
567.576	10789.15
567.833	10895.15
568.091	10914.15
568.348	10788.15
568.605	10776.15
568.863	10814.15
569.12	10731.15
569.377	10675.15
569.635	10644.15
569.892	10655.15
570.149	10630.15
570.406	10551.15
570.664	10545.15
570.921	10673.15
571.178	10569.15
571.435	10475.15
571.693	10504.15
571.95	10589.15
572.207	10455.15
572.464	10370.15
572.721	10493.15
572.979	10523.15
573.236	10394.15
573.493	10335.15
573.75	10379.15
574.007	10439.15
574.264	10333.15
574.521	10207.15
574.779	10229.15
575.036	10294.15
575.293	10208.15
575.55	10107.15
575.807	10079.15
576.064	10155.15
576.321	10057.15
576.578	9848.15
576.835	9843.15
577.092	10033.15
577.349	9870.15
577.606	9613.15
577.863	9605.15
578.12	9729.15
578.377	9733.15
578.634	9497.15
578.891	9528.15
579.148	9606.15
579.405	9489.15
579.662	9348.15
579.919	9386.15
580.176	9365.15
580.433	9356.15
580.69	9234.15
580.947	9271.15
581.204	9339.15
581.461	9149.15
581.717	8973.15
581.974	9061.15
582.231	9090.15
582.488	8934.15
582.745	8692.15
583.002	8701.15
583.259	8924.15
583.515	8765.15
583.772	8595.15
584.029	8643.15
584.286	8729.15
584.543	8477.15
584.799	8428.15
585.056	8475.15
585.313	8550.15
585.57	8465.15
585.826	8259.15
586.083	8344.15
586.34	8488.15
586.597	8255.15
586.853	8051.15
587.11	8068.15
587.367	8187.15
587.623	8150.15
587.88	8056.15
588.137	7928.15
588.393	8039.15
588.65	7933.15
588.907	7740.15
589.163	7787.15
589.42	7832.15
589.677	7789.15
589.933	7651.15
590.19	7658.15
590.446	7741.15
590.703	7723.15
590.96	7512.15
591.216	7488.15
591.473	7590.15
591.729	7535.15
591.986	7447.15
592.242	7463.15
592.499	7614.15
592.755	7422.15
593.012	7267.15
593.268	7385.15
593.525	7403.15
593.781	7407.15
594.038	7266.15
594.294	7276.15
594.551	7287.15
594.807	7231.15
595.064	7171.15
595.32	7239.15
595.576	7352.15
595.833	7353.15
596.089	7147.15
596.346	7196.15
596.602	7250.15
596.858	7318.15
597.115	7190.15
597.371	7216.15
597.628	7222.15
597.884	7141.15
598.14	7031.15
598.397	7157.15
598.653	7213.15
598.909	7141.15
599.166	7012.15
599.422	7015.15
599.678	7099.15
599.934	7080.15
600.191	6972.15
600.447	6983.15
600.703	7027.15
600.959	7020.15
601.216	6838.15
601.472	6895.15
601.728	6998.15
601.984	6912.15
602.241	6816.15
602.497	6877.15
602.753	7007.15
603.009	6913.15
603.265	6833.15
603.521	6982.15
603.778	7083.15
604.034	6865.15
604.29	6778.15
604.546	6876.15
604.802	6967.15
605.058	6854.15
605.314	6762.15
605.571	6831.15
605.827	6871.15
606.083	6860.15
606.339	6793.15
606.595	6885.15
606.851	6958.15
607.107	6946.15
607.363	6752.15
607.619	6791.15
607.875	6987.15
608.131	6908.15
608.387	6664.15
608.643	6714.15
608.899	6799.15
609.155	6810.15
609.411	6759.15
609.667	6767.15
609.923	6810.15
610.179	6754.15
610.435	6564.15
610.691	6677.15
610.947	6811.15
611.203	6718.15
611.459	6636.15
611.714	6695.15
611.97	6825.15
612.226	6770.15
612.482	6585.15
612.738	6637.15
612.994	6862.15
613.25	6646.15
613.505	6494.15
613.761	6527.15
614.017	6643.15
614.273	6653.15
614.529	6595.15
614.785	6528.15
615.04	6564.15
615.296	6512.15
615.552	6491.15
615.808	6527.15
616.063	6572.15
616.319	6489.15
616.575	6385.15
616.831	6488.15
617.086	6647.15
617.342	6567.15
617.598	6456.15
617.854	6510.15
618.109	6520.15
618.365	6411.15
618.621	6297.15
618.876	6357.15
619.132	6441.15
619.388	6374.15
619.643	6153.15
619.899	6218.15
620.155	6379.15
620.41	6354.15
620.666	6229.15
620.921	6264.15
621.177	6372.15
621.433	6330.15
621.688	6255.15
621.944	6163.15
622.199	6167.15
622.455	6181.15
622.71	6061.15
622.966	6100.15
623.221	6125.15
623.477	6131.15
623.732	6128.15
623.988	6057.15
624.243	6133.15
624.499	6052.15
624.754	5932.15
625.01	5969.15
625.265	6031.15
625.521	6146.15
625.776	6014.15
626.032	5950.15
626.287	5993.15
626.543	5925.15
626.798	5822.15
627.053	5868.15
627.309	5943.15
627.564	5810.15
627.82	5813.15
628.075	5890.15
628.33	5841.15
628.586	5738.15
628.841	5562.15
629.096	5692.15
629.352	5764.15
629.607	5653.15
629.862	5617.15
630.118	5743.15
630.373	5695.15
630.628	5673.15
630.884	5567.15
631.139	5598.15
631.394	5727.15
631.649	5652.15
631.905	5446.15
632.16	5540.15
632.415	5707.15
632.67	5607.15
632.926	5449.15
633.181	5382.15
633.436	5523.15
633.691	5486.15
633.946	5281.15
634.202	5246.15
634.457	5343.15
634.712	5336.15
634.967	5287.15
635.222	5235.15
635.477	5330.15
635.733	5343.15
635.988	5145.15
636.243	5152.15
636.498	5285.15
636.753	5241.15
637.008	5105.15
637.263	5170.15
637.518	5202.15
637.773	5155.15
638.028	5115.15
638.283	5152.15
638.539	5211.15
638.794	5155.15
639.049	5007.15
639.304	4980.15
639.559	5025.15
639.814	4995.15
640.069	4961.15
640.324	4945.15
640.579	5041.15
640.834	5039.15
641.089	4865.15
641.344	4925.15
641.598	5086.15
641.853	4934.15
642.108	4802.15
642.363	4779.15
642.618	4930.15
642.873	4860.15
643.128	4710.15
643.383	4726.15
643.638	4769.15
643.893	4835.15
644.148	4779.15
644.402	4718.15
644.657	4782.15
644.912	4665.15
645.167	4647.15
645.422	4671.15
645.677	4660.15
645.931	4699.15
646.186	4669.15
646.441	4576.15
646.696	4542.15
646.951	4593.15
647.205	4520.15
647.46	4505.15
647.715	4554.15
647.97	4695.15
648.224	4775.15
648.479	4637.15
648.734	4686.15
648.989	4599.15
649.243	4553.15
649.498	4498.15
649.753	4501.15
650.007	4555.15
650.262	4483.15
650.517	4437.15
650.771	4487.15
651.026	4422.15
651.281	4308.15
651.535	4403.15
651.79	4460.15
652.045	4433.15
652.299	4357.15
652.554	4364.15
652.809	4483.15
653.063	4586.15
653.318	4470.15
653.572	4368.15
653.827	4471.15
654.081	4404.15
654.336	4277.15
654.591	4283.15
654.845	4363.15
655.1	4304.15
655.354	4254.15
655.609	4337.15
655.863	4443.15
656.118	4369.15
656.372	4254.15
656.627	4273.15
656.881	4339.15
657.136	4234.15
657.39	4154.15
657.645	4340.15
657.899	4465.15
658.153	4305.15
658.408	4184.15
658.662	4248.15
658.917	4264.15
659.171	4163.15
659.426	4101.15
659.68	4139.15
659.934	4180.15
660.189	4135.15
660.443	4080.15
660.697	4250.15
660.952	4385.15
661.206	4224.15
661.46	4053.15
661.715	4143.15
661.969	4265.15
662.223	4251.15
662.478	4156.15
662.732	4182.15
662.986	4232.15
663.241	4251.15
663.495	4137.15
663.749	4209.15
664.003	4324.15
664.258	4225.15
664.512	4128.15
664.766	4189.15
665.02	4280.15
665.275	4266.15
665.529	4114.15
665.783	4161.15
666.037	4222.15
666.291	4213.15
666.546	4148.15
666.8	4211.15
667.054	4186.15
667.308	4207.15
667.562	4024.15
667.816	4150.15
668.071	4247.15
668.325	4164.15
668.579	4186.15
668.833	4251.15
669.087	4374.15
669.341	4250.15
669.595	4174.15
669.849	4281.15
670.103	4290.15
670.357	4258.15
670.612	4218.15
670.866	4214.15
671.12	4361.15
671.374	4308.15
671.628	4277.15
671.882	4204.15
672.136	4304.15
672.39	4347.15
672.644	4196.15
672.898	4361.15
673.152	4471.15
673.406	4412.15
673.66	4315.15
673.914	4383.15
674.168	4481.15
674.422	4411.15
674.675	4267.15
674.929	4359.15
675.183	4491.15
675.437	4422.15
675.691	4371.15
675.945	4431.15
676.199	4544.15
676.453	4386.15
676.707	4290.15
676.961	4342.15
677.214	4461.15
677.468	4499.15
677.722	4486.15
677.976	4450.15
678.23	4518.15
678.484	4496.15
678.737	4375.15
678.991	4427.15
679.245	4519.15
679.499	4439.15
679.753	4380.15
680.006	4481.15
680.26	4620.15
680.514	4603.15
680.768	4406.15
681.021	4523.15
681.275	4609.15
681.529	4582.15
681.783	4517.15
682.036	4577.15
682.29	4557.15
682.544	4593.15
682.797	4529.15
683.051	4520.15
683.305	4614.15
683.559	4633.15
683.812	4642.15
684.066	4657.15
684.32	4711.15
684.573	4672.15
684.827	4690.15
685.08	4667.15
685.334	4793.15
685.588	4718.15
685.841	4585.15
686.095	4735.15
686.348	4756.15
686.602	4739.15
686.856	4683.15
687.109	4656.15
687.363	4744.15
687.616	4672.15
687.87	4607.15
688.123	4639.15
688.377	4765.15
688.63	4794.15
688.884	4762.15
689.137	4847.15
689.391	4912.15
689.644	4761.15
689.898	4678.15
690.151	4696.15
690.405	4836.15
690.658	4781.15
690.912	4710.15
691.165	4707.15
691.419	4810.15
691.672	4823.15
691.926	4739.15
692.179	4774.15
692.432	4849.15
692.686	4830.15
692.939	4713.15
693.193	4777.15
693.446	4910.15
693.699	4922.15
693.953	4886.15
694.206	4827.15
694.459	4962.15
694.713	4977.15
694.966	4800.15
695.219	4827.15
695.473	4937.15
695.726	4846.15
695.979	4787.15
696.233	4905.15
696.486	4966.15
696.739	4938.15
696.992	4798.15
697.246	4908.15
697.499	5026.15
697.752	4829.15
698.006	4773.15
698.259	4827.15
698.512	4853.15
698.765	4827.15
699.018	4756.15
699.272	4872.15
699.525	4879.15
699.778	4788.15
700.031	4723.15
700.284	4784.15
700.538	4888.15
700.791	4882.15
701.044	4813.15
701.297	4834.15
701.55	4865.15
701.803	4818.15
702.056	4754.15
702.31	4843.15
702.563	4893.15
702.816	4764.15
703.069	4650.15
703.322	4763.15
703.575	4879.15
703.828	4898.15
704.081	4763.15
704.334	4726.15
704.587	4821.15
704.84	4800.15
705.093	4798.15
705.346	4879.15
705.599	4850.15
705.853	4865.15
706.106	4894.15
706.359	5125.15
706.612	4871.15
706.865	4870.15
707.118	4671.15
707.37	4739.15
707.623	4865.15
707.876	4821.15
708.129	4837.15
708.382	4860.15
708.635	4930.15
708.888	4792.15
709.141	4659.15
709.394	4790.15
709.647	4870.15
709.9	4739.15
710.153	4601.15
710.406	4730.15
710.658	4794.15
710.911	4739.15
711.164	4585.15
711.417	4588.15
711.67	4715.15
711.923	4762.15
712.176	4618.15
712.428	4606.15
712.681	4715.15
712.934	4724.15
713.187	4588.15
713.44	4583.15
713.692	4695.15
713.945	4585.15
714.198	4471.15
714.451	4474.15
714.704	4649.15
714.956	4690.15
715.209	4700.15
715.462	4635.15
715.715	4609.15
715.967	4579.15
716.22	4419.15
716.473	4467.15
716.725	4579.15
716.978	4545.15
717.231	4499.15
717.484	4531.15
717.736	4505.15
717.989	4456.15
718.242	4361.15
718.494	4441.15
718.747	4585.15
718.999	4490.15
719.252	4480.15
719.505	4471.15
719.757	4439.15
720.01	4411.15
720.263	4385.15
720.515	4404.15
720.768	4492.15
721.02	4440.15
721.273	4298.15
721.525	4294.15
721.778	4382.15
722.031	4442.15
722.283	4290.15
722.536	4273.15
722.788	4375.15
723.041	4336.15
723.293	4230.15
723.546	4180.15
723.798	4304.15
724.051	4350.15
724.303	4272.15
724.556	4280.15
724.808	4346.15
725.061	4275.15
725.313	4179.15
725.566	4202.15
725.818	4208.15
726.071	4180.15
726.323	4057.15
726.575	4133.15
726.828	4282.15
727.08	4296.15
727.333	4142.15
727.585	4097.15
727.837	4141.15
728.09	4174.15
728.342	4044.15
728.595	4102.15
728.847	4263.15
729.099	4017.15
729.352	4038.15
729.604	4031.15
729.856	4103.15
730.109	4037.15
730.361	3916.15
730.613	4043.15
730.866	4152.15
731.118	3976.15
731.37	3906.15
731.622	3923.15
731.875	4032.15
732.127	4115.15
732.379	4030.15
732.631	4012.15
732.884	3987.15
733.136	3936.15
733.388	3820.15
733.64	3849.15
733.893	3984.15
734.145	3902.15
734.397	3733.15
734.649	3764.15
734.901	3851.15
735.154	3764.15
735.406	3675.15
735.658	3718.15
735.91	3876.15
736.162	3829.15
736.414	3676.15
736.667	3749.15
736.919	3785.15
737.171	3650.15
737.423	3670.15
737.675	3690.15
737.927	3781.15
738.179	3706.15
738.431	3657.15
738.684	3639.15
738.936	3669.15
739.188	3724.15
739.44	3509.15
739.692	3524.15
739.944	3579.15
740.196	3598.15
740.448	3514.15
740.7	3527.15
740.952	3587.15
741.204	3570.15
741.456	3479.15
741.708	3542.15
741.96	3553.15
742.212	3620.15
742.464	3575.15
742.716	3408.15
742.968	3489.15
743.22	3445.15
743.472	3399.15
743.724	3507.15
743.976	3605.15
744.228	3595.15
744.48	3316.15
744.732	3339.15
744.983	3513.15
745.235	3480.15
745.487	3384.15
745.739	3424.15
745.991	3444.15
746.243	3465.15
746.495	3295.15
746.747	3342.15
746.999	3464.15
747.25	3438.15
747.502	3382.15
747.754	3462.15
748.006	3404.15
748.258	3525.15
748.51	3519.15
748.761	3383.15
749.013	3447.15
749.265	3461.15
749.517	3406.15
749.768	3469.15
750.02	3504.15
750.272	3422.15
750.524	3242.15
750.776	3190.15
751.027	3384.15
751.279	3413.15
751.531	3180.15
751.782	3241.15
752.034	3349.15
752.286	3263.15
752.538	3139.15
752.789	3222.15
753.041	3325.15
753.293	3246.15
753.544	3150.15
753.796	3186.15
754.048	3262.15
754.299	3274.15
754.551	3212.15
754.803	3130.15
755.054	3202.15
755.306	3242.15
755.558	3108.15
755.809	3142.15
756.061	3263.15
756.312	3143.15
756.564	3110.15
756.816	3133.15
757.067	3134.15
757.319	3109.15
757.57	3077.15
757.822	3146.15
758.073	3210.15
758.325	3147.15
758.577	3003.15
758.828	3023.15
759.08	3221.15
759.331	3203.15
759.583	3021.15
759.834	3077.15
760.086	3060.15
760.337	3035.15
760.589	2969.15
760.84	2959.15
761.092	3062.15
761.343	3042.15
761.595	2916.15
761.846	3046.15
762.097	3059.15
762.349	3015.15
762.6	2844.15
762.852	2967.15
763.103	3078.15
763.355	2935.15
763.606	2866.15
763.857	3000.15
764.109	3090.15
764.36	2966.15
764.612	2862.15
764.863	2961.15
765.114	2982.15
765.366	2858.15
765.617	2753.15
765.868	2809.15
766.12	2981.15
766.371	2970.15
766.622	2765.15
766.874	2828.15
767.125	2968.15
767.376	2838.15
767.628	2779.15
767.879	2840.15
768.13	2922.15
768.381	2873.15
768.633	2802.15
768.884	2827.15
769.135	2902.15
769.386	2832.15
769.638	2783.15
769.889	2823.15
770.14	2842.15
770.391	2751.15
770.643	2695.15
770.894	2698.15
771.145	2789.15
771.396	2694.15
771.647	2609.15
771.899	2711.15
772.15	2793.15
772.401	2764.15
772.652	2604.15
772.903	2646.15
773.154	2982.15
773.406	3181.15
773.657	2653.15
773.908	2638.15
774.159	2727.15
774.41	2734.15
774.661	2593.15
774.912	2630.15
775.163	2762.15
775.414	2788.15
775.666	2513.15
775.917	2514.15
776.168	2559.15
776.419	2617.15
776.67	2527.15
776.921	2517.15
777.172	2571.15
777.423	2621.15
777.674	2659.15
777.925	2628.15
778.176	2525.15
778.427	2536.15
778.678	2452.15
778.929	2473.15
779.18	2583.15
779.431	2462.15
779.682	2481.15
779.933	2535.15
780.184	2578.15
780.435	2533.15
780.686	2465.15
780.937	2527.15
781.188	2544.15
781.439	2619.15
781.69	2539.15
781.941	2512.15
782.191	2536.15
782.442	2507.15
782.693	2393.15
782.944	2385.15
783.195	2480.15
783.446	2482.15
783.697	2506.15
783.948	2367.15
784.199	2386.15
784.449	2359.15
784.7	2361.15
784.951	2423.15
785.202	2555.15
785.453	2489.15
785.704	2283.15
785.954	2295.15
786.205	2389.15
786.456	2313.15
786.707	2230.15
786.958	2265.15
787.208	2352.15
787.459	2314.15
787.71	2331.15
787.961	2299.15
788.211	2340.15
788.462	2321.15
788.713	2268.15
788.964	2252.15
789.214	2323.15
789.465	2350.15
789.716	2289.15
789.967	2310.15
790.217	2312.15
790.468	2257.15
790.719	2177.15
790.969	2215.15
791.22	2291.15
791.471	2340.15
791.721	2357.15
791.972	2203.15
792.223	2297.15
792.473	2219.15
792.724	2185.15
792.975	2201.15
793.225	2265.15
793.476	2223.15
793.726	2155.15
793.977	2261.15
794.228	2353.15
794.478	2216.15
794.729	2102.15
794.979	2223.15
795.23	2302.15
795.481	2215.15
795.731	2094.15
795.982	2175.15
796.232	2150.15
796.483	2084.15
796.733	2035.15
796.984	2142.15
797.234	2178.15
797.485	2191.15
797.735	2049.15
797.986	2090.15
798.236	2199.15
798.487	2112.15
798.737	2082.15
798.988	2201.15
799.238	2246.15
799.489	2101.15
799.739	2031.15
799.99	2079.15
800.24	2191.15
800.491	2225.15
800.741	2092.15
800.991	2015.15
801.242	2089.15
801.492	2102.15
801.743	2023.15
801.993	2229.15
802.244	2469.15
802.494	2106.15
802.744	2011.15
802.995	2019.15
803.245	2062.15
803.495	2035.15
803.746	1975.15
803.996	2043.15
804.246	2064.15
804.497	2057.15
804.747	1932.15
804.997	2020.15
805.248	2008.15
805.498	1973.15
805.748	2001.15
805.999	1866.15
806.249	1936.15
806.499	1936.15
806.75	1826.15
807	1861.15
807.25	1996.15
807.5	1957.15
807.751	1940.15
808.001	1977.15
808.251	1971.15
808.501	2055.15
808.752	2033.15
809.002	1975.15
809.252	1975.15
809.502	1907.15
809.752	1880.15
810.003	1824.15
810.253	1890.15
810.503	1914.15
810.753	1951.15
811.003	1961.15
811.254	1977.15
811.504	1922.15
811.754	1864.15
812.004	1880.15
812.254	2106.15
812.504	1938.15
812.754	1849.15
813.005	1905.15
813.255	1998.15
813.505	1942.15
813.755	1791.15
814.005	1870.15
814.255	1869.15
814.505	1859.15
814.755	1762.15
815.005	1754.15
815.255	1867.15
815.505	1822.15
815.756	1835.15
816.006	1830.15
816.256	1808.15
816.506	1768.15
816.756	1681.15
817.006	1725.15
817.256	1827.15
817.506	1805.15
817.756	1739.15
818.006	1765.15
818.256	1801.15
818.506	1771.15
818.756	1675.15
819.006	1701.15
819.256	1774.15
819.506	1744.15
819.756	1677.15
820.006	1790.15
820.255	1836.15
820.505	1797.15
820.755	1696.15
821.005	1715.15
821.255	1853.15
821.505	1777.15
821.755	1717.15
822.005	1776.15
822.255	1821.15
822.505	1741.15
822.755	1768.15
823.004	1638.15
823.254	1669.15
823.504	1765.15
823.754	1749.15
824.004	1664.15
824.254	1739.15
824.504	1739.15
824.753	1755.15
825.003	1756.15
825.253	1808.15
825.503	1699.15
825.753	1620.15
826.002	1703.15
826.252	1876.15
826.502	1686.15
826.752	1609.15
827.002	1638.15
827.251	1737.15
827.501	1669.15
827.751	1591.15
828.001	1629.15
828.25	1722.15
828.5	1571.15
828.75	1560.15
829	1637.15
829.249	1740.15
829.499	1590.15
829.749	1579.15
829.998	1650.15
830.248	1665.15
830.498	1542.15
830.748	1568.15
830.997	1627.15
831.247	1687.15
831.497	1650.15
831.746	1565.15
831.996	1685.15
832.246	1792.15
832.495	1759.15
832.745	1506.15
832.994	1543.15
833.244	1685.15
833.494	1584.15
833.743	1471.15
833.993	1530.15
834.243	1629.15
834.492	1630.15
834.742	1587.15
834.991	1566.15
835.241	1729.15
835.49	1569.15
835.74	1433.15
835.99	1518.15
836.239	1631.15
836.489	1649.15
836.738	1545.15
836.988	1453.15
837.237	1560.15
837.487	1626.15
837.736	1489.15
837.986	1480.15
838.235	1555.15
838.485	1511.15
838.734	1497.15
838.984	1552.15
839.233	1540.15
839.483	1442.15
839.732	1393.15
839.982	1512.15
840.231	1575.15
840.481	1549.15
840.73	1434.15
840.979	1477.15
841.229	1503.15
841.478	1500.15
841.728	1366.15
841.977	1357.15
842.227	1427.15
842.476	1380.15
842.725	1346.15
842.975	1380.15
843.224	1472.15
843.474	1501.15
843.723	1406.15
843.972	1423.15
844.222	1479.15
844.471	1509.15
844.72	1363.15
844.97	1379.15
845.219	1481.15
845.468	1493.15
845.718	1420.15
845.967	1405.15
846.216	1446.15
846.466	1504.15
846.715	1354.15
846.964	1346.15
847.214	1374.15
847.463	1351.15
847.712	1371.15
847.961	1342.15
848.211	1392.15
848.46	1367.15
848.709	1336.15
848.958	1306.15
849.208	1370.15
849.457	1355.15
849.706	1361.15
849.955	1331.15
850.205	1316.15
850.454	1421.15
850.703	1436.15
850.952	1391.15
851.201	1437.15
851.451	1362.15
851.7	1366.15
851.949	1259.15
852.198	1375.15
852.447	1327.15
852.696	1224.15
852.946	1293.15
853.195	1398.15
853.444	1384.15
853.693	1179.15
853.942	1197.15
854.191	1336.15
854.44	1387.15
854.689	1306.15
854.939	1252.15
855.188	1258.15
855.437	1268.15
855.686	1247.15
855.935	1238.15
856.184	1291.15
856.433	1326.15
856.682	1264.15
856.931	1249.15
857.18	1306.15
857.429	1204.15
857.678	1161.15
857.927	1225.15
858.176	1239.15
858.425	1161.15
858.674	1097.15
858.924	1193.15
859.173	1212.15
859.422	1239.15
859.671	1122.15
859.92	1196.15
860.169	1223.15
860.417	1277.15
860.666	1192.15
860.915	1150.15
861.164	1202.15
861.413	1148.15
861.662	1052.15
861.911	1099.15
862.16	1225.15
862.409	1179.15
862.658	1044.15
862.907	1095.15
863.156	1188.15
863.405	1196.15
863.654	1083.15
863.903	1030.15
864.151	1134.15
864.4	1171.15
864.649	1094.15
864.898	1133.15
865.147	1177.15
865.396	1184.15
865.645	1066.15
865.894	1123.15
866.142	1259.15
866.391	1149.15
866.64	1019.15
866.889	1117.15
867.138	1283.15
867.387	1162.15
867.635	1052.15
867.884	1114.15
868.133	1209.15
868.382	1101.15
868.631	1000.15
868.879	1029.15
869.128	1124.15
869.377	1119.15
869.626	1030.15
869.874	1030.15
870.123	1136.15
870.372	1079.15
870.621	973.15
870.869	1010.15
871.118	1117.15
871.367	1103.15
871.616	997.15
871.864	1077.15
872.113	1099.15
872.362	1058.15
872.61	1024.15
872.859	1072.15
873.108	1119.15
873.357	1044.15
873.605	949.15
873.854	953.15
874.103	1003.15
874.351	1006.15
874.6	966.15
874.848	989.15
875.097	1062.15
875.346	1069.15
875.594	969.15
875.843	1050.15
876.092	1184.15
876.34	1069.15
876.589	955.15
876.837	877.15
877.086	941.15
877.335	1028.15
877.583	977.15
877.832	998.15
878.08	1089.15
878.329	1001.15
878.578	923.15
878.826	934.15
879.075	1015.15
879.323	1045.15
879.572	952.15
879.82	1063.15
880.069	1001.15
880.317	1020.15
880.566	881.15
880.814	989.15
881.063	1099.15
881.311	1003.15
881.56	1019.15
881.808	935.15
882.057	1005.15
882.305	985.15
882.554	979.15
882.802	884.15
883.051	926.15
883.299	938.15
883.548	888.15
883.796	991.15
884.045	967.15
884.293	892.15
884.541	799.15
884.79	803.15
885.038	883.15
885.287	884.15
885.535	906.15
885.783	939.15
886.032	886.15
886.28	837.15
886.529	797.15
886.777	868.15
887.025	976.15
887.274	859.15
887.522	835.15
887.77	841.15
888.019	853.15
888.267	833.15
888.516	750.15
888.764	805.15
889.012	885.15
889.261	867.15
889.509	782.15
889.757	800.15
890.005	829.15
890.254	774.15
890.502	821.15
890.75	1020.15
890.999	1004.15
891.247	898.15
891.495	844.15
891.743	829.15
891.992	959.15
892.24	866.15
892.488	742.15
892.737	781.15
892.985	855.15
893.233	853.15
893.481	794.15
893.729	763.15
893.978	940.15
894.226	950.15
894.474	781.15
894.722	768.15
894.97	803.15
895.219	806.15
895.467	820.15
895.715	829.15
895.963	817.15
896.211	761.15
896.46	649.15
896.708	775.15
896.956	855.15
897.204	921.15
897.452	814.15
897.7	779.15
897.948	846.15
898.197	788.15
898.445	719.15
898.693	758.15
898.941	799.15
899.189	781.15
899.437	740.15
899.685	823.15
899.933	779.15
900.181	798.15
900.43	695.15
900.678	717.15
900.926	789.15
901.174	761.15
901.422	708.15
901.67	747.15
901.918	802.15
902.166	757.15
902.414	615.15
902.662	646.15
902.91	751.15
903.158	750.15
903.406	689.15
903.654	675.15
903.902	699.15
904.15	693.15
904.398	606.15
904.646	714.15
904.894	789.15
905.142	782.15
905.39	729.15
905.638	645.15
905.886	697.15
906.134	696.15
906.382	673.15
906.63	602.15
906.878	714.15
907.126	711.15
907.374	621.15
907.622	643.15
907.869	768.15
908.117	738.15
908.365	659.15
908.613	629.15
908.861	653.15
909.109	594.15
909.357	565.15
909.605	644.15
909.853	725.15
910.1	684.15
910.348	499.15
910.596	540.15
910.844	725.15
911.092	745.15
911.34	629.15
911.588	640.15
911.835	699.15
912.083	677.15
912.331	656.15
912.579	684.15
912.827	838.15
913.075	738.15
913.322	589.15
913.57	598.15
913.818	713.15
914.066	633.15
914.313	575.15
914.561	652.15
914.809	676.15
915.057	627.15
915.305	597.15
915.552	587.15
915.8	690.15
916.048	604.15
916.296	537.15
916.543	647.15
916.791	715.15
917.039	625.15
917.286	522.15
917.534	575.15
917.782	703.15
918.03	606.15
918.277	489.15
918.525	492.15
918.773	595.15
919.02	593.15
919.268	530.15
919.516	551.15
919.763	556.15
920.011	573.15
920.259	476.15
920.506	567.15
920.754	659.15
921.002	655.15
921.249	600.15
921.497	552.15
921.745	594.15
921.992	587.15
922.24	445.15
922.487	586.15
922.735	729.15
922.983	641.15
923.23	544.15
923.478	511.15
923.725	607.15
923.973	604.15
924.221	571.15
924.468	620.15
924.716	581.15
924.963	556.15
925.211	502.15
925.458	555.15
925.706	669.15
925.953	703.15
926.201	525.15
926.448	496.15
926.696	607.15
926.944	555.15
927.191	497.15
927.439	505.15
927.686	535.15
927.934	565.15
928.181	455.15
928.429	461.15
928.676	515.15
928.923	433.15
929.171	375.15
929.418	532.15
929.666	598.15
929.913	584.15
930.161	390.15
930.408	419.15
930.656	510.15
930.903	498.15
931.151	382.15
931.398	437.15
931.645	594.15
931.893	485.15
932.14	428.15
932.388	455.15
932.635	586.15
932.882	624.15
933.13	495.15
933.377	441.15
933.625	531.15
933.872	459.15
934.119	385.15
934.367	441.15
934.614	438.15
934.861	427.15
935.109	425.15
935.356	473.15
935.603	522.15
935.851	455.15
936.098	380.15
936.345	496.15
936.593	529.15
936.84	467.15
937.087	317.15
937.335	409.15
937.582	469.15
937.829	488.15
938.077	458.15
938.324	428.15
938.571	504.15
938.818	444.15
939.066	369.15
939.313	359.15
939.56	482.15
939.807	479.15
940.055	367.15
940.302	407.15
940.549	565.15
940.796	475.15
941.044	391.15
941.291	415.15
941.538	583.15
941.785	505.15
942.033	474.15
942.28	465.15
942.527	488.15
942.774	477.15
943.021	325.15
943.269	350.15
943.516	464.15
943.763	458.15
944.01	405.15
944.257	473.15
944.504	537.15
944.752	475.15
944.999	433.15
945.246	369.15
945.493	441.15
945.74	423.15
945.987	340.15
946.234	408.15
946.482	497.15
946.729	404.15
946.976	328.15
947.223	357.15
947.47	521.15
947.717	469.15
947.964	470.15
948.211	439.15
948.458	491.15
948.705	426.15
948.952	325.15
949.2	400.15
949.447	518.15
949.694	494.15
949.941	359.15
950.188	344.15
950.435	367.15
950.682	384.15
950.929	276.15
951.176	321.15
951.423	471.15
951.67	439.15
951.917	413.15
952.164	421.15
952.411	467.15
952.658	497.15
952.905	369.15
953.152	299.15
953.399	410.15
953.646	418.15
953.893	302.15
954.14	348.15
954.387	394.15
954.634	351.15
954.881	298.15
955.128	356.15
955.375	366.15
955.622	375.15
955.869	373.15
956.115	343.15
956.362	405.15
956.609	381.15
956.856	302.15
957.103	308.15
957.35	414.15
957.597	436.15
957.844	353.15
958.091	341.15
958.338	429.15
958.585	348.15
958.831	167.15
959.078	257.15
959.325	405.15
959.572	309.15
959.819	225.15
960.066	202.15
960.313	336.15
960.559	321.15
960.806	186.15
961.053	232.15
961.3	408.15
961.547	438.15
961.794	224.15
962.04	358.15
962.287	377.15
962.534	266.15
962.781	239.15
963.028	328.15
963.274	430.15
963.521	310.15
963.768	235.15
964.015	278.15
964.262	451.15
964.508	292.15
964.755	194.15
965.002	226.15
965.249	280.15
965.495	232.15
965.742	199.15
965.989	213.15
966.236	328.15
966.482	254.15
966.729	185.15
966.976	193.15
967.222	275.15
967.469	259.15
967.716	191.15
967.963	208.15
968.209	314.15
968.456	250.15
968.703	148.15
968.949	253.15
969.196	417.15
969.443	411.15
969.689	185.15
969.936	158.15
970.183	264.15
970.429	200.15
970.676	157.15
970.923	234.15
971.169	288.15
971.416	231.15
971.663	195.15
971.909	245.15
972.156	312.15
972.402	298.15
972.649	216.15
972.896	235.15
973.142	250.15
973.389	276.15
973.635	194.15
973.882	304.15
974.129	370.15
974.375	244.15
974.622	152.15
974.868	195.15
975.115	273.15
975.361	203.15
975.608	173.15
975.855	278.15
976.101	315.15
976.348	253.15
976.594	185.15
976.841	232.15
977.087	246.15
977.334	258.15
977.58	130.15
977.827	139.15
978.073	280.15
978.32	254.15
978.566	110.15
978.813	192.15
979.059	257.15
979.306	249.15
979.552	143.15
979.799	201.15
980.045	201.15
980.292	204.15
980.538	129.15
980.785	142.15
981.031	181.15
981.278	161.15
981.524	86.15
981.771	234.15
982.017	369.15
982.263	263.15
982.51	137.15
982.756	211.15
983.003	265.15
983.249	198.15
983.495	121.15
983.742	89.15
983.988	190.15
984.235	214.15
984.481	118.15
984.727	111.15
984.974	223.15
985.22	231.15
985.467	157.15
985.713	158.15
985.959	258.15
986.206	247.15
986.452	178.15
986.698	213.15
986.945	214.15
987.191	245.15
987.437	247.15
987.684	203.15
987.93	339.15
988.176	249.15
988.423	76.15
988.669	148.15
988.915	309.15
989.162	161.15
989.408	71.15
989.654	139.15
989.901	166.15
990.147	153.15
990.393	176.15
990.639	236.15
990.886	245.15
991.132	289.15
991.378	231.15
991.625	353.15
991.871	339.15
992.117	250.15
992.363	186.15
992.61	200.15
992.856	296.15
993.102	163.15
993.348	88.15
993.594	131.15
993.841	175.15
994.087	300.15
994.333	173.15
994.579	154.15
994.826	187.15
995.072	211.15
995.318	19.15
995.564	79.15
995.81	217.15
996.057	143.15
996.303	52.15
996.549	88.15
996.795	172.15
997.041	151.15
997.287	112.15
997.534	99.15
997.78	157.15
998.026	188.15
998.272	73.15
998.518	50.15
998.764	218.15
999.01	246.15
999.256	152.15
999.503	93.15
999.749	115.15
999.995	77.15
1000.241	53.15
1000.487	137.15
1000.733	186.15
1000.979	131.15
1001.225	109.15
1001.471	172.15
1001.718	229.15
1001.964	240.15
1002.21	102.15
1002.456	127.15
1002.702	265.15
1002.948	160.15
1003.194	85.15
1003.44	75.15
1003.686	155.15
1003.932	114.15
1004.178	54.15
1004.424	114.15
1004.67	246.15
1004.916	230.15
1005.162	133.15
1005.408	90.15
1005.654	229.15
1005.9	59.15
1006.146	-4.85
1006.392	87.15
1006.638	176.15
1006.884	124.15
1007.13	55.15
1007.376	53.15
1007.622	232.15
1007.868	228.15
1008.114	96.15
1008.36	156.15
1008.606	185.15
1008.852	208.15
1009.098	127.15
1009.344	158.15
1009.59	151.15
1009.836	31.15
1010.082	-34.85
1010.328	77.15
1010.574	154.15
1010.82	74.15
1011.065	-7.85
1011.311	10.15
1011.557	125.15
1011.803	90.15
1012.049	29.15
1012.295	75.15
1012.541	110.15
1012.787	125.15
1013.033	-21.85
1013.278	-46.85
1013.524	110.15
1013.77	175.15
1014.016	72.15
1014.262	72.15
1014.508	194.15
1014.754	33.15
1015	4.15
1015.245	172.15
1015.491	186.15
1015.737	145.15
1015.983	11.15
1016.229	-22.85
1016.475	93.15
1016.72	216.15
1016.966	239.15
1017.212	124.15
1017.458	194.15
1017.704	104.15
1017.949	-23.85
1018.195	128.15
1018.441	224.15
1018.687	177.15
1018.933	22.15
1019.178	17.15
1019.424	195.15
1019.67	197.15
1019.916	-3.85
1020.161	56.15
1020.407	131.15
1020.653	51.15
1020.899	-15.85
1021.144	53.15
1021.39	140.15
1021.636	43.15
1021.882	-59.85
1022.127	46.15
1022.373	214.15
1022.619	144.15
1022.865	31.15
1023.11	34.15
1023.356	161.15
1023.602	88.15
1023.847	34.15
1024.093	78.15
1024.339	60.15
1024.584	27.15
1024.83	3.15
1025.076	28.15
1025.321	153.15
1025.567	110.15
1025.813	10.15
1026.058	83.15
1026.304	137.15
1026.55	43.15
1026.795	30.15
1027.041	50.15
1027.287	107.15
1027.532	128.15
1027.778	86.15
1028.024	62.15
1028.269	79.15
1028.515	3.15
1028.76	-31.85
1029.006	38.15
1029.252	142.15
1029.497	70.15
1029.743	49.15
1029.989	-14.85
1030.234	120.15
1030.48	193.15
1030.725	-9.85
1030.971	35.15
1031.216	167.15
1031.462	65.15
1031.708	-72.85
1031.953	-21.85
1032.199	75.15
1032.444	66.15
1032.69	12.15
1032.935	22.15
1033.181	130.15
1033.426	18.15
1033.672	-114.85
1033.918	-58.85
1034.163	55.15
1034.409	34.15
1034.654	-10.85
1034.9	105.15
1035.145	139.15
1035.391	64.15
1035.636	-63.85
1035.882	20.15
1036.127	12.15
1036.373	-16.85
1036.618	-106.85
1036.864	-10.85
1037.109	124.15
1037.355	33.15
1037.6	-19.85
1037.845	2.15
1038.091	173.15
1038.336	131.15
1038.582	165.15
1038.827	251.15
1039.073	97.15
1039.318	-3.85
1039.564	-108.85
1039.809	-35.85
1040.055	138.15
1040.3	142.15
1040.545	-12.85
1040.791	-38.85
1041.036	32.15
1041.282	67.15
1041.527	122.15
1041.772	-52.85
1042.018	6.15
1042.263	44.15
1042.509	-111.85
1042.754	-73.85
1042.999	65.15
1043.245	45.15
1043.49	-121.85
1043.736	-42.85
1043.981	33.15
1044.226	38.15
1044.472	38.15
1044.717	53.15
1044.962	145.15
1045.208	49.15
1045.453	-174.85
1045.698	-93.85
1045.944	107.15
1046.189	71.15
1046.434	-32.85
1046.68	-10.85
1046.925	159.15
1047.17	19.15
1047.416	-166.85
1047.661	-79.85
1047.906	82.15
1048.152	51.15
1048.397	-45.85
1048.642	-46.85
1048.887	142.15
1049.133	147.15
1049.378	-17.85
1049.623	-33.85
1049.869	75.15
1050.114	17.15
1050.359	-76.85
1050.604	-2.85
1050.85	146.15
1051.095	15.15
1051.34	-81.85
1051.585	-9.85
1051.831	172.15
1052.076	28.15
1052.321	-174.85
1052.566	-56.85
1052.812	133.15
1053.057	35.15
1053.302	-36.85
1053.547	39.15
1053.792	95.15
1054.038	69.15
1054.283	-115.85
1054.528	-24.85
1054.773	46.15
1055.018	41.15
1055.264	-81.85
1055.509	-120.85
1055.754	15.15
1055.999	-45.85
1056.244	-113.85
1056.49	-56.85
1056.735	53.15
1056.98	-6.85
1057.225	-104.85
1057.47	89.15
1057.715	15.15
1057.96	-68.85
1058.206	-113.85
1058.451	-14.85
1058.696	116.15
1058.941	53.15
1059.186	-109.85
1059.431	-92.85
1059.676	121.15
1059.922	43.15
1060.167	115.15
1060.412	274.15
1060.657	93.15
1060.902	27.15
1061.147	-145.85
1061.392	-72.85
1061.637	60.15
1061.882	-10.85
1062.127	-147.85
1062.373	-130.85
1062.618	134.15
1062.863	156.15
1063.108	-48.85
1063.353	-101.85
1063.598	-3.85
1063.843	-18.85
1064.088	-105.85
1064.333	-103.85
1064.578	46.15
1064.823	66.15
1065.068	-165.85
1065.313	-91.85
1065.558	63.15
1065.803	57.15
1066.048	-136.85
1066.293	-117.85
1066.538	97.15
1066.783	13.15
1067.028	-177.85
1067.273	-139.85
1067.518	46.15
1067.763	-4.85
1068.008	-158.85
1068.253	-104.85
1068.498	63.15
1068.743	-2.85
1068.988	-147.85
1069.233	-141.85
1069.478	73.15
1069.723	125.15
1069.968	-59.85
1070.213	-20.85
1070.458	88.15
1070.703	-4.85
1070.948	-192.85
1071.193	-82.85
1071.438	63.15
1071.683	83.15
1071.928	-37.85
1072.173	-56.85
1072.418	18.15
1072.663	-17.85
1072.908	-138.85
1073.152	-80.85
1073.397	79.15
1073.642	-30.85
1073.887	-80.85
1074.132	31.15
1074.377	45.15
1074.622	14.15
1074.867	-116.85
1075.112	-55.85
1075.357	151.15
1075.601	7.15
1075.846	-54.85
1076.091	41.15
1076.336	86.15
1076.581	-42.85
1076.826	-154.85
1077.071	-80.85
1077.315	170.15
1077.56	91.15
1077.805	-118.85
1078.05	-61.85
1078.295	4.15
1078.54	-24.85
1078.785	-156.85
1079.029	-96.85
1079.274	61.15
1079.519	-50.85
1079.764	-148.85
1080.009	-50.85
1080.253	25.15
1080.498	-54.85
1080.743	-207.85
1080.988	-52.85
1081.233	160.15
1081.478	86.15
1081.722	-106.85
1081.967	6.15
1082.212	158.15
1082.457	41.15
1082.701	-105.85
1082.946	-64.85
1083.191	52.15
1083.436	-42.85
1083.681	-201.85
1083.925	-90.85
1084.17	15.15
1084.415	42.15
1084.66	-168.85
1084.904	-71.85
1085.149	15.15
1085.394	-37.85
1085.639	-209.85
1085.883	-101.85
1086.128	155.15
1086.373	162.15
1086.617	-74.85
1086.862	-136.85
1087.107	-0.85
1087.352	-52.85
1087.596	-145.85
1087.841	-19.85
1088.086	41.15
1088.33	13.15
1088.575	-226.85
1088.82	-88.85
1089.064	75.15
1089.309	-58.85
1089.554	-172.85
1089.798	-151.85
1090.043	41.15
1090.288	6.15
1090.533	-192.85
1090.777	-127.85
1091.022	17.15
1091.266	41.15
1091.511	-122.85
1091.756	-34.85
1092	128.15
1092.245	96.15
1092.49	-145.85
1092.734	-95.85
1092.979	91.15
1093.224	-18.85
1093.468	-158.85
1093.713	-78.85
1093.957	28.15
1094.202	-49.85
1094.447	-211.85
1094.691	-92.85
1094.936	44.15
1095.181	-6.85
1095.425	-179.85
1095.67	-144.85
1095.914	33.15
1096.159	3.15
1096.403	-153.85
1096.648	-62.85
1096.893	70.15
1097.137	-81.85
1097.382	-228.85
1097.626	-155.85
1097.871	9.15
1098.115	-44.85
1098.36	-210.85
1098.605	-113.85
1098.849	-52.85
1099.094	-102.85
1099.338	-192.85
1099.583	-103.85
1099.827	131.15
1100.072	34.15
1100.316	-161.85
1100.561	-100.85
1100.805	61.15
1101.05	18.15
1101.294	-195.85
1101.539	-176.85
1101.783	5.15
1102.028	10.15
1102.273	-144.85
1102.517	-81.85
1102.761	64.15
1103.006	-48.85
1103.25	-259.85
1103.495	-157.85
1103.739	51.15
1103.984	83.15
1104.228	-106.85
1104.473	-40.85
1104.717	27.15
1104.962	-18.85
1105.206	-130.85
1105.451	-138.85
1105.695	27.15
1105.94	-0.85
1106.184	-145.85
1106.429	-92.85
1106.673	18.15
1106.917	75.15
1107.162	-162.85
1107.406	-32.85
1107.651	121.15
1107.895	-85.85
1108.14	-184.85
1108.384	-77.85
1108.628	114.15
1108.873	91.15
1109.117	-132.85
1109.362	-115.85
1109.606	-33.85
1109.85	-31.85
1110.095	-159.85
1110.339	-96.85
1110.584	91.15
1110.828	38.15
1111.072	-88.85
1111.317	-126.85
1111.561	-12.85
1111.806	-40.85
1112.05	-185.85
1112.294	-87.85
1112.539	24.15
1112.783	-10.85
1113.027	-128.85
1113.272	-115.85
1113.516	-24.85
1113.76	-32.85
1114.005	-146.85
1114.249	-76.85
1114.493	78.15
1114.738	91.15
1114.982	-45.85
1115.226	-71.85
1115.471	6.15
1115.715	-18.85
1115.959	-188.85
1116.204	-163.85
1116.448	-9.85
1116.692	-84.85
1116.937	-175.85
1117.181	-22.85
1117.425	-22.85
1117.67	-76.85
1117.914	-142.85
1118.158	-91.85
1118.402	153.15
1118.647	71.15
1118.891	-88.85
1119.135	-36.85
1119.38	110.15
1119.624	18.15
1119.868	-141.85
1120.112	-141.85
1120.357	-47.85
1120.601	-120.85
1120.845	-220.85
1121.089	-139.85
1121.334	45.15
