Data from HR4C21111__3__09-39-49-671.txt Node

Date: Mon Feb 22 09:39:49 IST 2021
User: Kapil
Spectrometer: HR4C2111
Trigger mode: 4
Integration Time (sec): 2.300000E0
Scans to average: 1
Electric dark correction enabled: true
Nonlinearity correction enabled: false
Boxcar width: 0
XAxis mode: Wavelengths
Number of Pixels in Spectrum: 3648
>>>>>Begin Spectral Data<<<<<
189.472	-439.85
189.745	-439.85
190.017	-439.85
190.289	-462.85
190.561	-303.85
190.834	-38.85
191.106	-118.85
191.378	17.15
191.65	5.15
191.923	-148.85
192.195	-100.85
192.467	144.15
192.739	122.15
193.011	-23.85
193.284	80.15
193.556	173.15
193.828	-14.85
194.1	-95.85
194.372	-114.85
194.644	58.15
194.916	60.15
195.188	-153.85
195.46	-79.85
195.732	32.15
196.004	-5.85
196.276	-96.85
196.548	-50.85
196.82	90.15
197.092	60.15
197.364	-132.85
197.636	-80.85
197.908	43.15
198.18	-25.85
198.452	-83.85
198.724	-34.85
198.996	76.15
199.268	89.15
199.54	-14.85
199.811	-102.85
200.083	97.15
200.355	27.15
200.627	-186.85
200.899	-69.85
201.171	65.15
201.442	-48.85
201.714	-180.85
201.986	-116.85
202.258	54.15
202.529	110.15
202.801	-3.85
203.073	74.15
203.345	193.15
203.616	13.15
203.888	-140.85
204.16	-150.85
204.431	90.15
204.703	1.15
204.974	-143.85
205.246	-1.85
205.518	193.15
205.789	-2.85
206.061	-134.85
206.332	-106.85
206.604	33.15
206.876	97.15
207.147	101.15
207.419	14.15
207.69	132.15
207.962	-26.85
208.233	-180.85
208.505	28.15
208.776	191.15
209.047	89.15
209.319	-123.85
209.59	-82.85
209.862	142.15
210.133	45.15
210.404	-149.85
210.676	-95.85
210.947	82.15
211.219	73.15
211.49	-125.85
211.761	-61.85
212.033	33.15
212.304	-28.85
212.575	-174.85
212.846	-85.85
213.118	25.15
213.389	-62.85
213.66	-107.85
213.931	-46.85
214.203	27.15
214.474	-24.85
214.745	-111.85
215.016	140.15
215.287	430.15
215.559	60.15
215.83	-111.85
216.101	-62.85
216.372	12.15
216.643	68.15
216.914	7.15
217.185	-75.85
217.456	156.15
217.727	29.15
217.998	-141.85
218.269	-43.85
218.54	43.15
218.811	-9.85
219.082	-91.85
219.353	-72.85
219.624	-15.85
219.895	-26.85
220.166	-125.85
220.437	-106.85
220.708	105.15
220.979	14.15
221.25	-136.85
221.521	-86.85
221.792	39.15
222.063	91.15
222.334	34.15
222.604	167.15
222.875	176.15
223.146	96.15
223.417	-151.85
223.688	-21.85
223.958	117.15
224.229	-61.85
224.5	-167.85
224.771	-65.85
225.041	79.15
225.312	54.15
225.583	-106.85
225.854	-69.85
226.124	87.15
226.395	-8.85
226.666	-122.85
226.936	-84.85
227.207	72.15
227.478	-42.85
227.748	-108.85
228.019	31.15
228.289	244.15
228.56	-23.85
228.831	-38.85
229.101	51.15
229.372	79.15
229.642	-0.85
229.913	-166.85
230.183	-124.85
230.454	10.15
230.724	9.15
230.995	-101.85
231.265	-76.85
231.536	70.15
231.806	46.15
232.076	-107.85
232.347	-104.85
232.617	45.15
232.888	23.15
233.158	-75.85
233.428	-133.85
233.699	-8.85
233.969	-42.85
234.239	-165.85
234.51	-95.85
234.78	55.15
235.05	-2.85
235.321	-127.85
235.591	-72.85
235.861	77.15
236.131	-33.85
236.402	-178.85
236.672	-76.85
236.942	43.15
237.212	41.15
237.483	-66.85
237.753	11.15
238.023	178.15
238.293	22.15
238.563	-92.85
238.833	-96.85
239.103	65.15
239.374	-19.85
239.644	-138.85
239.914	-30.85
240.184	127.15
240.454	-7.85
240.724	-152.85
240.994	-50.85
241.264	30.15
241.534	63.15
241.804	0.15
242.074	-82.85
242.344	-29.85
242.614	-62.85
242.884	-183.85
243.154	-132.85
243.424	38.15
243.694	71.15
243.964	-86.85
244.234	-71.85
244.503	120.15
244.773	12.15
245.043	-220.85
245.313	-141.85
245.583	114.15
245.853	82.15
246.123	-161.85
246.392	-109.85
246.662	12.15
246.932	-9.85
247.202	-176.85
247.471	-63.85
247.741	262.15
248.011	94.15
248.281	-140.85
248.55	-89.85
248.82	62.15
249.09	9.15
249.359	-81.85
249.629	-73.85
249.899	64.15
250.168	65.15
250.438	-21.85
250.708	-98.85
250.977	77.15
251.247	58.15
251.516	-116.85
251.786	-37.85
252.055	122.15
252.325	11.15
252.595	-99.85
252.864	-51.85
253.134	63.15
253.403	-15.85
253.673	-162.85
253.942	-101.85
254.212	44.15
254.481	6.15
254.75	-145.85
255.02	-93.85
255.289	70.15
255.559	-27.85
255.828	-127.85
256.097	-25.85
256.367	36.15
256.636	-58.85
256.906	-132.85
257.175	-2.85
257.444	263.15
257.714	59.15
257.983	-85.85
258.252	-42.85
258.521	7.15
258.791	49.15
259.06	-96.85
259.329	-41.85
259.598	77.15
259.868	-1.85
260.137	-115.85
260.406	8.15
260.675	92.15
260.944	26.15
261.214	-131.85
261.483	-46.85
261.752	168.15
262.021	5.15
262.29	-166.85
262.559	-97.85
262.828	21.15
263.097	-51.85
263.366	-203.85
263.635	-88.85
263.905	147.15
264.174	30.15
264.443	-207.85
264.712	-99.85
264.981	56.15
265.25	-33.85
265.519	-152.85
265.788	-145.85
266.057	42.15
266.325	64.15
266.594	-60.85
266.863	-109.85
267.132	32.15
267.401	3.15
267.67	-182.85
267.939	-130.85
268.208	31.15
268.477	68.15
268.745	-127.85
269.014	-92.85
269.283	138.15
269.552	34.15
269.821	-120.85
270.089	-24.85
270.358	-8.85
270.627	-20.85
270.896	-113.85
271.164	-145.85
271.433	20.15
271.702	77.15
271.971	-141.85
272.239	-131.85
272.508	30.15
272.777	-11.85
273.045	-15.85
273.314	-15.85
273.583	116.15
273.851	-1.85
274.12	-150.85
274.388	-137.85
274.657	-13.85
274.926	8.15
275.194	-138.85
275.463	-49.85
275.731	38.15
276	176.15
276.268	379.15
276.537	-85.85
276.805	32.15
277.074	49.15
277.342	-154.85
277.611	-98.85
277.879	98.15
278.148	37.15
278.416	-126.85
278.684	-108.85
278.953	3.15
279.221	-7.85
279.49	-170.85
279.758	-77.85
280.026	4.15
280.295	3.15
280.563	-114.85
280.831	643.15
281.1	1651.15
281.368	187.15
281.636	-79.85
281.904	-102.85
282.173	-2.85
282.441	-37.85
282.709	-78.85
282.977	28.15
283.246	44.15
283.514	-27.85
283.782	-54.85
284.05	38.15
284.318	79.15
284.587	-22.85
284.855	-121.85
285.123	-37.85
285.391	72.15
285.659	36.15
285.927	-151.85
286.195	-65.85
286.463	62.15
286.732	-1.85
287	-109.85
287.268	-52.85
287.536	38.15
287.804	-39.85
288.072	-131.85
288.34	-73.85
288.608	84.15
288.876	-18.85
289.144	-112.85
289.412	-13.85
289.68	56.15
289.948	-15.85
290.215	-100.85
290.483	-98.85
290.751	93.15
291.019	102.15
291.287	-161.85
291.555	-119.85
291.823	49.15
292.091	0.15
292.358	-76.85
292.626	-12.85
292.894	93.15
293.162	52.15
293.43	-116.85
293.697	-83.85
293.965	59.15
294.233	-11.85
294.501	-154.85
294.768	-67.85
295.036	62.15
295.304	31.15
295.572	-132.85
295.839	-87.85
296.107	115.15
296.375	0.15
296.642	-124.85
296.91	-110.85
297.178	67.15
297.445	187.15
297.713	104.15
297.98	-70.85
298.248	-26.85
298.516	-36.85
298.783	-120.85
299.051	-109.85
299.318	32.15
299.586	-13.85
299.853	-84.85
300.121	-83.85
300.388	44.15
300.656	-14.85
300.923	-142.85
301.191	-34.85
301.458	58.15
301.726	-5.85
301.993	-133.85
302.26	-84.85
302.528	53.15
302.795	0.15
303.063	-74.85
303.33	-49.85
303.597	30.15
303.865	17.15
304.132	-117.85
304.399	-126.85
304.667	-28.85
304.934	11.15
305.201	-101.85
305.469	-15.85
305.736	57.15
306.003	32.15
306.27	-66.85
306.538	-82.85
306.805	5.15
307.072	-21.85
307.339	-84.85
307.606	-45.85
307.874	159.15
308.141	71.15
308.408	-125.85
308.675	-110.85
308.942	-32.85
309.209	-63.85
309.477	-105.85
309.744	-76.85
310.011	31.15
310.278	55.15
310.545	-5.85
310.812	-36.85
311.079	141.15
311.346	190.15
311.613	43.15
311.88	-32.85
312.147	-64.85
312.414	-29.85
312.681	-98.85
312.948	-35.85
313.215	118.15
313.482	90.15
313.749	-80.85
314.016	-179.85
314.283	-55.85
314.55	57.15
314.817	-78.85
315.083	-110.85
315.35	-56.85
315.617	-113.85
315.884	-123.85
316.151	50.15
316.418	154.15
316.684	-26.85
316.951	-176.85
317.218	-96.85
317.485	-1.85
317.752	-52.85
318.018	-113.85
318.285	-10.85
318.552	32.15
318.819	-50.85
319.085	-132.85
319.352	-45.85
319.619	41.15
319.885	-30.85
320.152	-192.85
320.419	-93.85
320.685	37.15
320.952	-22.85
321.219	-53.85
321.485	91.15
321.752	28.15
322.019	-50.85
322.285	29.15
322.552	-13.85
322.818	133.15
323.085	-7.85
323.351	-118.85
323.618	-26.85
323.884	39.15
324.151	-50.85
324.417	-28.85
324.684	-67.85
324.95	-46.85
325.217	-135.85
325.483	-164.85
325.75	-27.85
326.016	14.15
326.283	-18.85
326.549	-172.85
326.815	-61.85
327.082	109.15
327.348	38.15
327.615	-90.85
327.881	-21.85
328.147	122.15
328.414	127.15
328.68	17.15
328.946	-37.85
329.212	45.15
329.479	0.15
329.745	-114.85
330.011	-100.85
330.278	22.15
330.544	-25.85
330.81	-25.85
331.076	-21.85
331.342	-21.85
331.609	-27.85
331.875	-72.85
332.141	-84.85
332.407	49.15
332.673	28.15
332.94	-4.85
333.206	-25.85
333.472	64.15
333.738	85.15
334.004	-95.85
334.27	-10.85
334.536	12.15
334.802	-38.85
335.068	-94.85
335.334	10.15
335.6	25.15
335.866	-29.85
336.132	-163.85
336.398	-93.85
336.664	-5.85
336.93	-28.85
337.196	-77.85
337.462	-7.85
337.728	61.15
337.994	-8.85
338.26	-80.85
338.526	-21.85
338.792	-32.85
339.058	-30.85
339.324	-143.85
339.59	5.15
339.856	68.15
340.121	-46.85
340.387	-116.85
340.653	77.15
340.919	147.15
341.185	59.15
341.45	-67.85
341.716	27.15
341.982	124.15
342.248	-36.85
342.514	-70.85
342.779	27.15
343.045	48.15
343.311	-13.85
343.576	-92.85
343.842	-45.85
344.108	125.15
344.374	43.15
344.639	-86.85
344.905	-74.85
345.171	56.15
345.436	-42.85
345.702	-95.85
345.967	52.15
346.233	99.15
346.499	25.15
346.764	-158.85
347.03	-56.85
347.295	-15.85
347.561	11.15
347.826	-46.85
348.092	-135.85
348.357	-14.85
348.623	-13.85
348.888	-110.85
349.154	-72.85
349.419	60.15
349.685	22.15
349.95	-59.85
350.216	-42.85
350.481	45.15
350.747	-36.85
351.012	-166.85
351.277	-88.85
351.543	53.15
351.808	-15.85
352.074	-160.85
352.339	-110.85
352.604	46.15
352.87	25.15
353.135	-92.85
353.4	-37.85
353.666	23.15
353.931	-7.85
354.196	-140.85
354.461	-120.85
354.727	66.15
354.992	24.15
355.257	-105.85
355.522	-0.85
355.788	22.15
356.053	65.15
356.318	-59.85
356.583	-79.85
356.848	127.15
357.113	248.15
357.379	-27.85
357.644	-63.85
357.909	139.15
358.174	166.15
358.439	-89.85
358.704	-26.85
358.969	112.15
359.234	98.15
359.499	-80.85
359.765	9.15
360.03	123.15
360.295	133.15
360.56	-36.85
360.825	18.15
361.09	208.15
361.355	54.15
361.62	-3.85
361.885	48.15
362.15	42.15
362.415	57.15
362.679	-5.85
362.944	143.15
363.209	152.15
363.474	155.15
363.739	97.15
364.004	23.15
364.269	86.15
364.534	133.15
364.799	90.15
365.063	98.15
365.328	226.15
365.593	200.15
365.858	84.15
366.123	92.15
366.387	216.15
366.652	142.15
366.917	57.15
367.182	134.15
367.447	266.15
367.711	216.15
367.976	145.15
368.241	233.15
368.505	304.15
368.77	206.15
369.035	192.15
369.299	244.15
369.564	286.15
369.829	223.15
370.093	201.15
370.358	180.15
370.623	290.15
370.887	307.15
371.152	170.15
371.416	261.15
371.681	308.15
371.946	219.15
372.21	207.15
372.475	342.15
372.739	385.15
373.004	315.15
373.268	293.15
373.533	364.15
373.797	420.15
374.062	412.15
374.326	271.15
374.591	368.15
374.855	460.15
375.12	404.15
375.384	263.15
375.648	360.15
375.913	514.15
376.177	528.15
376.442	427.15
376.706	437.15
376.97	577.15
377.235	541.15
377.499	520.15
377.763	543.15
378.028	557.15
378.292	600.15
378.556	523.15
378.821	485.15
379.085	565.15
379.349	531.15
379.614	481.15
379.878	611.15
380.142	789.15
380.406	716.15
380.671	713.15
380.935	839.15
381.199	961.15
381.463	852.15
381.727	829.15
381.991	805.15
382.256	884.15
382.52	860.15
382.784	880.15
383.048	1011.15
383.312	946.15
383.576	917.15
383.84	832.15
384.104	901.15
384.369	1038.15
384.633	928.15
384.897	862.15
385.161	1007.15
385.425	1117.15
385.689	1060.15
385.953	1023.15
386.217	1032.15
386.481	1139.15
386.745	1180.15
387.009	1149.15
387.273	1132.15
387.537	1178.15
387.801	1223.15
388.064	1190.15
388.328	1307.15
388.592	1367.15
388.856	1326.15
389.12	1253.15
389.384	1347.15
389.648	1429.15
389.912	1504.15
390.176	1488.15
390.439	1600.15
390.703	1452.15
390.967	1442.15
391.231	1389.15
391.495	1480.15
391.758	1544.15
392.022	1595.15
392.286	1479.15
392.55	1512.15
392.813	1626.15
393.077	1699.15
393.341	1636.15
393.605	1725.15
393.868	1743.15
394.132	1708.15
394.396	1668.15
394.659	1833.15
394.923	1808.15
395.187	1751.15
395.45	1787.15
395.714	1851.15
395.978	1871.15
396.241	1898.15
396.505	1835.15
396.768	1924.15
397.032	2026.15
397.295	2017.15
397.559	1971.15
397.823	1962.15
398.086	2089.15
398.35	2032.15
398.613	1939.15
398.877	2069.15
399.14	2237.15
399.404	2281.15
399.667	2197.15
399.931	2153.15
400.194	2246.15
400.457	2213.15
400.721	2208.15
400.984	2332.15
401.248	2316.15
401.511	2285.15
401.775	2189.15
402.038	2263.15
402.301	2503.15
402.565	2446.15
402.828	2240.15
403.091	2358.15
403.355	2521.15
403.618	2498.15
403.881	2478.15
404.145	2508.15
404.408	2578.15
404.671	2536.15
404.934	2569.15
405.198	2624.15
405.461	2658.15
405.724	2689.15
405.987	2703.15
406.251	2753.15
406.514	2899.15
406.777	2753.15
407.04	2683.15
407.303	2686.15
407.567	2827.15
407.83	2892.15
408.093	2736.15
408.356	2862.15
408.619	2982.15
408.882	3053.15
409.145	2937.15
409.408	2886.15
409.672	3033.15
409.935	2954.15
410.198	2829.15
410.461	2926.15
410.724	3174.15
410.987	3088.15
411.25	2870.15
411.513	3038.15
411.776	3121.15
412.039	3023.15
412.302	2961.15
412.565	3015.15
412.828	3040.15
413.091	3068.15
413.354	3015.15
413.617	3014.15
413.879	3054.15
414.142	3063.15
414.405	2901.15
414.668	2973.15
414.931	3054.15
415.194	3042.15
415.457	2935.15
415.72	2996.15
415.983	3026.15
416.245	3091.15
416.508	3018.15
416.771	2920.15
417.034	3067.15
417.297	3066.15
417.559	3037.15
417.822	2993.15
418.085	3099.15
418.348	3061.15
418.61	2943.15
418.873	2924.15
419.136	2974.15
419.399	2978.15
419.661	3030.15
419.924	2962.15
420.187	3048.15
420.449	3059.15
420.712	3048.15
420.975	3045.15
421.237	3118.15
421.5	3131.15
421.762	3191.15
422.025	3190.15
422.288	3274.15
422.55	3105.15
422.813	3018.15
423.075	3132.15
423.338	3256.15
423.601	3285.15
423.863	3216.15
424.126	3238.15
424.388	3342.15
424.651	3333.15
424.913	3319.15
425.176	3317.15
425.438	3318.15
425.701	3311.15
425.963	3224.15
426.225	3273.15
426.488	3341.15
426.75	3351.15
427.013	3328.15
427.275	3411.15
427.538	3402.15
427.8	3422.15
428.062	3345.15
428.325	3365.15
428.587	3445.15
428.849	3443.15
429.112	3456.15
429.374	3394.15
429.636	3448.15
429.899	3570.15
430.161	3489.15
430.423	3514.15
430.686	3668.15
430.948	3645.15
431.21	3456.15
431.472	3403.15
431.735	3594.15
431.997	3642.15
432.259	3611.15
432.521	3479.15
432.783	3626.15
433.046	3623.15
433.308	3474.15
433.57	3541.15
433.832	3813.15
434.094	3657.15
434.356	3475.15
434.618	3572.15
434.881	3643.15
435.143	3697.15
435.405	3726.15
435.667	3685.15
435.929	3695.15
436.191	3688.15
436.453	3636.15
436.715	3772.15
436.977	3874.15
437.239	3930.15
437.501	3807.15
437.763	3779.15
438.025	3853.15
438.287	3834.15
438.549	3805.15
438.811	3777.15
439.073	3790.15
439.335	3850.15
439.597	3791.15
439.859	3779.15
440.121	3937.15
440.383	3856.15
440.645	3814.15
440.907	3870.15
441.168	3880.15
441.43	3852.15
441.692	3858.15
441.954	3919.15
442.216	3945.15
442.478	3893.15
442.74	3797.15
443.001	3953.15
443.263	4099.15
443.525	3927.15
443.787	3785.15
444.048	3820.15
444.31	3867.15
444.572	3916.15
444.834	3858.15
445.095	3866.15
445.357	4065.15
445.619	3872.15
445.881	3777.15
446.142	3853.15
446.404	3849.15
446.666	3902.15
446.927	3881.15
447.189	3980.15
447.451	4060.15
447.712	3912.15
447.974	3748.15
448.235	3822.15
448.497	3933.15
448.759	3818.15
449.02	3833.15
449.282	3825.15
449.543	3954.15
449.805	3987.15
450.066	3712.15
450.328	3853.15
450.59	4095.15
450.851	3921.15
451.113	3761.15
451.374	3737.15
451.636	3970.15
451.897	4020.15
452.158	3939.15
452.42	3972.15
452.681	4034.15
452.943	3825.15
453.204	3854.15
453.466	3842.15
453.727	3907.15
453.988	3999.15
454.25	3841.15
454.511	3863.15
454.773	3963.15
455.034	4100.15
455.295	3857.15
455.557	3960.15
455.818	3998.15
456.079	3975.15
456.341	4070.15
456.602	4131.15
456.863	4133.15
457.124	3951.15
457.386	3855.15
457.647	3874.15
457.908	3948.15
458.169	4089.15
458.431	3980.15
458.692	4046.15
458.953	4109.15
459.214	4043.15
459.476	4125.15
459.737	4258.15
459.998	4270.15
460.259	4174.15
460.52	4093.15
460.781	4248.15
461.043	4461.15
461.304	4283.15
461.565	4080.15
461.826	4178.15
462.087	4380.15
462.348	4477.15
462.609	4432.15
462.87	4420.15
463.131	4330.15
463.392	4571.15
463.653	4582.15
463.914	4532.15
464.175	4513.15
464.436	4562.15
464.697	4602.15
464.958	4446.15
465.219	4515.15
465.48	4624.15
465.741	4661.15
466.002	4543.15
466.263	4747.15
466.524	4769.15
466.785	4611.15
467.046	4680.15
467.307	4851.15
467.568	4882.15
467.829	4868.15
468.089	4891.15
468.35	4941.15
468.611	4892.15
468.872	4796.15
469.133	4979.15
469.394	5242.15
469.655	5326.15
469.915	5154.15
470.176	4989.15
470.437	5072.15
470.698	5253.15
470.958	5277.15
471.219	5264.15
471.48	5414.15
471.741	5520.15
472.001	5472.15
472.262	5483.15
472.523	5694.15
472.784	5797.15
473.044	5685.15
473.305	5725.15
473.566	5783.15
473.826	5818.15
474.087	5738.15
474.348	5856.15
474.608	6089.15
474.869	6017.15
475.129	5936.15
475.39	6078.15
475.651	6180.15
475.911	6329.15
476.172	6224.15
476.432	6336.15
476.693	6550.15
476.953	6379.15
477.214	6439.15
477.475	6521.15
477.735	6558.15
477.996	6633.15
478.256	6545.15
478.517	6652.15
478.777	6773.15
479.038	6891.15
479.298	6921.15
479.558	6959.15
479.819	7085.15
480.079	7164.15
480.34	7242.15
480.6	7207.15
480.861	7360.15
481.121	7306.15
481.381	7281.15
481.642	7351.15
481.902	7429.15
482.162	7429.15
482.423	7435.15
482.683	7567.15
482.943	7660.15
483.204	7614.15
483.464	7583.15
483.724	7647.15
483.985	7733.15
484.245	7842.15
484.505	7814.15
484.765	7899.15
485.026	7968.15
485.286	8089.15
485.546	8049.15
485.806	8093.15
486.067	8105.15
486.327	8039.15
486.587	8059.15
486.847	8122.15
487.107	8218.15
487.368	8202.15
487.628	8162.15
487.888	8301.15
488.148	8421.15
488.408	8303.15
488.668	8402.15
488.928	8418.15
489.188	8433.15
489.449	8523.15
489.709	8360.15
489.969	8456.15
490.229	8628.15
490.489	8592.15
490.749	8464.15
491.009	8443.15
491.269	8527.15
491.529	8563.15
491.789	8588.15
492.049	8640.15
492.309	8756.15
492.569	8659.15
492.829	8640.15
493.089	8633.15
493.349	8806.15
493.609	8697.15
493.869	8596.15
494.129	8722.15
494.389	8814.15
494.648	8692.15
494.908	8615.15
495.168	8698.15
495.428	8797.15
495.688	8748.15
495.948	8594.15
496.208	8662.15
496.467	8774.15
496.727	8816.15
496.987	8776.15
497.247	8778.15
497.507	8889.15
497.767	8961.15
498.026	8757.15
498.286	8845.15
498.546	8946.15
498.806	8900.15
499.065	8935.15
499.325	8841.15
499.585	8874.15
499.845	8858.15
500.104	8883.15
500.364	8971.15
500.624	8904.15
500.883	8786.15
501.143	8860.15
501.403	8933.15
501.662	9042.15
501.922	8994.15
502.182	8794.15
502.441	8793.15
502.701	8852.15
502.96	8926.15
503.22	8880.15
503.48	8874.15
503.739	8938.15
503.999	8879.15
504.258	8823.15
504.518	8889.15
504.777	8989.15
505.037	8969.15
505.296	8852.15
505.556	8848.15
505.815	8992.15
506.075	9093.15
506.334	9014.15
506.594	8807.15
506.853	8840.15
507.113	8834.15
507.372	8724.15
507.632	8766.15
507.891	8855.15
508.151	8964.15
508.41	8791.15
508.669	8818.15
508.929	8919.15
509.188	8844.15
509.447	8796.15
509.707	8806.15
509.966	8933.15
510.226	8896.15
510.485	8861.15
510.744	8951.15
511.004	8968.15
511.263	8826.15
511.522	8819.15
511.781	8808.15
512.041	8875.15
512.3	8883.15
512.559	8905.15
512.818	8997.15
513.078	9023.15
513.337	8898.15
513.596	8799.15
513.855	8825.15
514.115	8848.15
514.374	8877.15
514.633	8814.15
514.892	8793.15
515.151	8984.15
515.41	8982.15
515.67	8838.15
515.929	8876.15
516.188	8985.15
516.447	8873.15
516.706	8793.15
516.965	8939.15
517.224	9040.15
517.483	8942.15
517.743	8848.15
518.002	8949.15
518.261	9060.15
518.52	9025.15
518.779	8850.15
519.038	8866.15
519.297	8937.15
519.556	8954.15
519.815	8820.15
520.074	8862.15
520.333	8973.15
520.592	8990.15
520.851	8904.15
521.11	9007.15
521.369	9061.15
521.628	8943.15
521.887	8904.15
522.145	8937.15
522.404	8987.15
522.663	8984.15
522.922	8859.15
523.181	8820.15
523.44	8896.15
523.699	8977.15
523.958	8855.15
524.217	8891.15
524.475	8902.15
524.734	8913.15
524.993	8888.15
525.252	8896.15
525.511	8947.15
525.769	8870.15
526.028	8823.15
526.287	8879.15
526.546	8910.15
526.805	8897.15
527.063	8731.15
527.322	8761.15
527.581	8951.15
527.839	8840.15
528.098	8780.15
528.357	8770.15
528.616	8860.15
528.874	8860.15
529.133	8749.15
529.392	8820.15
529.65	8866.15
529.909	8830.15
530.168	8704.15
530.426	8734.15
530.685	8847.15
530.943	8846.15
531.202	8710.15
531.461	8744.15
531.719	8864.15
531.978	8849.15
532.236	8702.15
532.495	8756.15
532.753	8891.15
533.012	8819.15
533.271	8700.15
533.529	8657.15
533.788	8758.15
534.046	8756.15
534.305	8661.15
534.563	8849.15
534.822	8948.15
535.08	8839.15
535.338	8730.15
535.597	8778.15
535.855	8885.15
536.114	8807.15
536.372	8756.15
536.631	8855.15
536.889	8889.15
537.147	8872.15
537.406	8674.15
537.664	8799.15
537.923	8920.15
538.181	8885.15
538.439	8712.15
538.698	8848.15
538.956	8870.15
539.214	8836.15
539.473	8839.15
539.731	8930.15
539.989	9063.15
540.248	8950.15
540.506	8872.15
540.764	8913.15
541.022	8986.15
541.281	9077.15
541.539	8964.15
541.797	8930.15
542.055	9117.15
542.314	9184.15
542.572	9143.15
542.83	8996.15
543.088	9146.15
543.346	9119.15
543.604	9014.15
543.863	9121.15
544.121	9251.15
544.379	9152.15
544.637	9105.15
544.895	9307.15
545.153	9361.15
545.411	9253.15
545.67	9156.15
545.928	9241.15
546.186	9368.15
546.444	9422.15
546.702	9366.15
546.96	9439.15
547.218	9511.15
547.476	9472.15
547.734	9394.15
547.992	9508.15
548.25	9724.15
548.508	9603.15
548.766	9516.15
549.024	9576.15
549.282	9680.15
549.54	9750.15
549.798	9730.15
550.056	9718.15
550.314	9851.15
550.572	9830.15
550.83	9757.15
551.088	9877.15
551.346	9996.15
551.603	10017.15
551.861	9943.15
552.119	10011.15
552.377	10099.15
552.635	10043.15
552.893	9949.15
553.151	9995.15
553.409	10188.15
553.666	10220.15
553.924	10157.15
554.182	10172.15
554.44	10345.15
554.698	10422.15
554.955	10290.15
555.213	10262.15
555.471	10423.15
555.729	10425.15
555.986	10258.15
556.244	10365.15
556.502	10627.15
556.76	10454.15
557.017	10489.15
557.275	10480.15
557.533	10647.15
557.79	10637.15
558.048	10492.15
558.306	10577.15
558.563	10652.15
558.821	10630.15
559.079	10606.15
559.336	10600.15
559.594	10677.15
559.852	10634.15
560.109	10590.15
560.367	10690.15
560.624	10806.15
560.882	10780.15
561.14	10719.15
561.397	10854.15
561.655	10787.15
561.912	10760.15
562.17	10663.15
562.427	10759.15
562.685	10915.15
562.942	10868.15
563.2	10726.15
563.457	10752.15
563.715	10850.15
563.972	10916.15
564.23	10711.15
564.487	10670.15
564.745	10877.15
565.002	10943.15
565.26	10797.15
565.517	10720.15
565.774	10788.15
566.032	10839.15
566.289	10767.15
566.547	10785.15
566.804	10898.15
567.061	10814.15
567.319	10709.15
567.576	10790.15
567.833	10892.15
568.091	10937.15
568.348	10794.15
568.605	10732.15
568.863	10865.15
569.12	10807.15
569.377	10726.15
569.635	10689.15
569.892	10659.15
570.149	10634.15
570.406	10544.15
570.664	10562.15
570.921	10722.15
571.178	10579.15
571.435	10527.15
571.693	10508.15
571.95	10575.15
572.207	10425.15
572.464	10386.15
572.721	10491.15
572.979	10515.15
573.236	10441.15
573.493	10321.15
573.75	10376.15
574.007	10462.15
574.264	10322.15
574.521	10210.15
574.779	10177.15
575.036	10283.15
575.293	10231.15
575.55	10070.15
575.807	10065.15
576.064	10080.15
576.321	10008.15
576.578	9830.15
576.835	9841.15
577.092	10043.15
577.349	9949.15
577.606	9689.15
577.863	9650.15
578.12	9777.15
578.377	9779.15
578.634	9473.15
578.891	9538.15
579.148	9552.15
579.405	9445.15
579.662	9330.15
579.919	9380.15
580.176	9376.15
580.433	9362.15
580.69	9230.15
580.947	9190.15
581.204	9275.15
581.461	9154.15
581.717	9006.15
581.974	9072.15
582.231	9099.15
582.488	8902.15
582.745	8719.15
583.002	8731.15
583.259	8868.15
583.515	8790.15
583.772	8604.15
584.029	8623.15
584.286	8686.15
584.543	8504.15
584.799	8441.15
585.056	8502.15
585.313	8579.15
585.57	8514.15
585.826	8353.15
586.083	8403.15
586.34	8511.15
586.597	8256.15
586.853	8071.15
587.11	8063.15
587.367	8209.15
587.623	8194.15
587.88	8035.15
588.137	7920.15
588.393	7978.15
588.65	7879.15
588.907	7765.15
589.163	7787.15
589.42	7816.15
589.677	7813.15
589.933	7657.15
590.19	7663.15
590.446	7799.15
590.703	7771.15
590.96	7487.15
591.216	7457.15
591.473	7556.15
591.729	7533.15
591.986	7466.15
592.242	7527.15
592.499	7668.15
592.755	7482.15
593.012	7333.15
593.268	7375.15
593.525	7350.15
593.781	7348.15
594.038	7264.15
594.294	7339.15
594.551	7339.15
594.807	7244.15
595.064	7248.15
595.32	7222.15
595.576	7292.15
595.833	7321.15
596.089	7152.15
596.346	7281.15
596.602	7311.15
596.858	7313.15
597.115	7135.15
597.371	7165.15
597.628	7165.15
597.884	7139.15
598.14	7078.15
598.397	7161.15
598.653	7264.15
598.909	7131.15
599.166	6962.15
599.422	7025.15
599.678	7107.15
599.934	7106.15
600.191	6982.15
600.447	7017.15
600.703	7056.15
600.959	6979.15
601.216	6847.15
601.472	6885.15
601.728	7002.15
601.984	6890.15
602.241	6848.15
602.497	6963.15
602.753	7058.15
603.009	6945.15
603.265	6832.15
603.521	6952.15
603.778	7087.15
604.034	6910.15
604.29	6824.15
604.546	6908.15
604.802	6980.15
605.058	6881.15
605.314	6828.15
605.571	6887.15
605.827	6878.15
606.083	6843.15
606.339	6746.15
606.595	6847.15
606.851	6967.15
607.107	6983.15
607.363	6749.15
607.619	6793.15
607.875	6934.15
608.131	6909.15
608.387	6710.15
608.643	6719.15
608.899	6811.15
609.155	6788.15
609.411	6743.15
609.667	6748.15
609.923	6764.15
610.179	6700.15
610.435	6524.15
610.691	6578.15
610.947	6749.15
611.203	6677.15
611.459	6616.15
611.714	6700.15
611.97	6830.15
612.226	6774.15
612.482	6574.15
612.738	6699.15
612.994	6902.15
613.25	6646.15
613.505	6532.15
613.761	6500.15
614.017	6588.15
614.273	6656.15
614.529	6564.15
614.785	6462.15
615.04	6578.15
615.296	6582.15
615.552	6514.15
615.808	6522.15
616.063	6578.15
616.319	6559.15
616.575	6395.15
616.831	6457.15
617.086	6687.15
617.342	6624.15
617.598	6476.15
617.854	6473.15
618.109	6502.15
618.365	6409.15
618.621	6261.15
618.876	6365.15
619.132	6491.15
619.388	6336.15
619.643	6203.15
619.899	6317.15
620.155	6390.15
620.41	6376.15
620.666	6255.15
620.921	6294.15
621.177	6341.15
621.433	6360.15
621.688	6245.15
621.944	6142.15
622.199	6188.15
622.455	6175.15
622.71	6084.15
622.966	6094.15
623.221	6100.15
623.477	6111.15
623.732	6121.15
623.988	6014.15
624.243	6118.15
624.499	6096.15
624.754	5934.15
625.01	5962.15
625.265	6087.15
625.521	6080.15
625.776	5935.15
626.032	5935.15
626.287	5965.15
626.543	5910.15
626.798	5890.15
627.053	5885.15
627.309	5935.15
627.564	5836.15
627.82	5839.15
628.075	5866.15
628.33	5792.15
628.586	5730.15
628.841	5609.15
629.096	5721.15
629.352	5789.15
629.607	5738.15
629.862	5656.15
630.118	5743.15
630.373	5747.15
630.628	5730.15
630.884	5568.15
631.139	5561.15
631.394	5690.15
631.649	5664.15
631.905	5535.15
632.16	5576.15
632.415	5732.15
632.67	5605.15
632.926	5384.15
633.181	5364.15
633.436	5485.15
633.691	5437.15
633.946	5302.15
634.202	5310.15
634.457	5422.15
634.712	5381.15
634.967	5274.15
635.222	5241.15
635.477	5321.15
635.733	5350.15
635.988	5204.15
636.243	5207.15
636.498	5333.15
636.753	5272.15
637.008	5108.15
637.263	5177.15
637.518	5208.15
637.773	5171.15
638.028	5131.15
638.283	5181.15
638.539	5249.15
638.794	5156.15
639.049	4971.15
639.304	4982.15
639.559	5063.15
639.814	5073.15
640.069	4954.15
640.324	4968.15
640.579	5032.15
640.834	4998.15
641.089	4875.15
641.344	4980.15
641.598	5144.15
641.853	4998.15
642.108	4823.15
642.363	4781.15
642.618	4958.15
642.873	4865.15
643.128	4699.15
643.383	4750.15
643.638	4793.15
643.893	4833.15
644.148	4789.15
644.402	4683.15
644.657	4707.15
644.912	4685.15
645.167	4673.15
645.422	4716.15
645.677	4685.15
645.931	4707.15
646.186	4684.15
646.441	4577.15
646.696	4578.15
646.951	4639.15
647.205	4589.15
647.46	4567.15
647.715	4627.15
647.97	4733.15
648.224	4766.15
648.479	4576.15
648.734	4746.15
648.989	4675.15
649.243	4571.15
649.498	4510.15
649.753	4513.15
650.007	4593.15
650.262	4441.15
650.517	4441.15
650.771	4532.15
651.026	4456.15
651.281	4345.15
651.535	4452.15
651.79	4492.15
652.045	4472.15
652.299	4350.15
652.554	4344.15
652.809	4453.15
653.063	4574.15
653.318	4475.15
653.572	4351.15
653.827	4429.15
654.081	4316.15
654.336	4201.15
654.591	4244.15
654.845	4349.15
655.1	4291.15
655.354	4222.15
655.609	4288.15
655.863	4419.15
656.118	4432.15
656.372	4233.15
656.627	4238.15
656.881	4356.15
657.136	4312.15
657.39	4203.15
657.645	4287.15
657.899	4454.15
658.153	4323.15
658.408	4181.15
658.662	4230.15
658.917	4296.15
659.171	4212.15
659.426	4141.15
659.68	4192.15
659.934	4286.15
660.189	4260.15
660.443	4128.15
660.697	4303.15
660.952	4378.15
661.206	4244.15
661.46	4079.15
661.715	4146.15
661.969	4247.15
662.223	4215.15
662.478	4129.15
662.732	4230.15
662.986	4255.15
663.241	4232.15
663.495	4124.15
663.749	4168.15
664.003	4340.15
664.258	4223.15
664.512	4154.15
664.766	4203.15
665.02	4303.15
665.275	4315.15
665.529	4124.15
665.783	4156.15
666.037	4311.15
666.291	4245.15
666.546	4118.15
666.8	4212.15
667.054	4213.15
667.308	4254.15
667.562	4076.15
667.816	4134.15
668.071	4271.15
668.325	4157.15
668.579	4182.15
668.833	4249.15
669.087	4380.15
669.341	4293.15
669.595	4214.15
669.849	4267.15
670.103	4279.15
670.357	4278.15
670.612	4242.15
670.866	4247.15
671.12	4362.15
671.374	4315.15
671.628	4261.15
671.882	4237.15
672.136	4339.15
672.39	4319.15
672.644	4164.15
672.898	4313.15
673.152	4479.15
673.406	4439.15
673.66	4307.15
673.914	4364.15
674.168	4441.15
674.422	4377.15
674.675	4284.15
674.929	4316.15
675.183	4448.15
675.437	4410.15
675.691	4378.15
675.945	4442.15
676.199	4549.15
676.453	4443.15
676.707	4322.15
676.961	4353.15
677.214	4427.15
677.468	4436.15
677.722	4487.15
677.976	4478.15
678.23	4536.15
678.484	4541.15
678.737	4427.15
678.991	4459.15
679.245	4523.15
679.499	4514.15
679.753	4444.15
680.006	4480.15
680.26	4601.15
680.514	4609.15
680.768	4485.15
681.021	4580.15
681.275	4634.15
681.529	4594.15
681.783	4538.15
682.036	4596.15
682.29	4587.15
682.544	4588.15
682.797	4549.15
683.051	4552.15
683.305	4628.15
683.559	4635.15
683.812	4645.15
684.066	4637.15
684.32	4702.15
684.573	4708.15
684.827	4717.15
685.08	4715.15
685.334	4808.15
685.588	4730.15
685.841	4618.15
686.095	4758.15
686.348	4787.15
686.602	4764.15
686.856	4732.15
687.109	4715.15
687.363	4772.15
687.616	4728.15
687.87	4624.15
688.123	4696.15
688.377	4784.15
688.63	4803.15
688.884	4765.15
689.137	4878.15
689.391	4908.15
689.644	4741.15
689.898	4676.15
690.151	4702.15
690.405	4833.15
690.658	4819.15
690.912	4734.15
691.165	4706.15
691.419	4778.15
691.672	4858.15
691.926	4788.15
692.179	4770.15
692.432	4836.15
692.686	4799.15
692.939	4723.15
693.193	4741.15
693.446	4888.15
693.699	4886.15
693.953	4921.15
694.206	4842.15
694.459	4924.15
694.713	4957.15
694.966	4830.15
695.219	4859.15
695.473	4951.15
695.726	4826.15
695.979	4732.15
696.233	4878.15
696.486	4984.15
696.739	4914.15
696.992	4835.15
697.246	4913.15
697.499	4986.15
697.752	4858.15
698.006	4833.15
698.259	4932.15
698.512	4937.15
698.765	4906.15
699.018	4820.15
699.272	4835.15
699.525	4820.15
699.778	4799.15
700.031	4773.15
700.284	4778.15
700.538	4891.15
700.791	4852.15
701.044	4818.15
701.297	4849.15
701.55	4828.15
701.803	4810.15
702.056	4719.15
702.31	4794.15
702.563	4884.15
702.816	4812.15
703.069	4714.15
703.322	4810.15
703.575	4881.15
703.828	4889.15
704.081	4759.15
704.334	4760.15
704.587	4813.15
704.84	4801.15
705.093	4811.15
705.346	4911.15
705.599	4868.15
705.853	4816.15
706.106	4890.15
706.359	5142.15
706.612	4878.15
706.865	4857.15
707.118	4698.15
707.37	4773.15
707.623	4885.15
707.876	4827.15
708.129	4773.15
708.382	4901.15
708.635	4963.15
708.888	4774.15
709.141	4648.15
709.394	4735.15
709.647	4810.15
709.9	4734.15
710.153	4648.15
710.406	4778.15
710.658	4838.15
710.911	4767.15
711.164	4626.15
711.417	4609.15
711.67	4666.15
711.923	4760.15
712.176	4619.15
712.428	4631.15
712.681	4731.15
712.934	4739.15
713.187	4608.15
713.44	4560.15
713.692	4701.15
713.945	4634.15
714.198	4530.15
714.451	4514.15
714.704	4644.15
714.956	4664.15
715.209	4712.15
715.462	4686.15
715.715	4651.15
715.967	4630.15
716.22	4418.15
716.473	4442.15
716.725	4617.15
716.978	4617.15
717.231	4525.15
717.484	4550.15
717.736	4506.15
717.989	4399.15
718.242	4333.15
718.494	4446.15
718.747	4584.15
718.999	4505.15
719.252	4454.15
719.505	4441.15
719.757	4507.15
720.01	4454.15
720.263	4392.15
720.515	4405.15
720.768	4468.15
721.02	4446.15
721.273	4309.15
721.525	4271.15
721.778	4386.15
722.031	4468.15
722.283	4328.15
722.536	4317.15
722.788	4373.15
723.041	4311.15
723.293	4220.15
723.546	4199.15
723.798	4295.15
724.051	4365.15
724.303	4285.15
724.556	4309.15
724.808	4392.15
725.061	4337.15
725.313	4204.15
725.566	4154.15
725.818	4196.15
726.071	4177.15
726.323	4031.15
726.575	4124.15
726.828	4306.15
727.08	4285.15
727.333	4149.15
727.585	4118.15
727.837	4146.15
728.09	4145.15
728.342	4016.15
728.595	4046.15
728.847	4208.15
729.099	4012.15
729.352	4058.15
729.604	4071.15
729.856	4116.15
730.109	4042.15
730.361	3954.15
730.613	4074.15
730.866	4138.15
731.118	4021.15
731.37	3934.15
731.622	3953.15
731.875	4049.15
732.127	4082.15
732.379	4017.15
732.631	4030.15
732.884	4000.15
733.136	3911.15
733.388	3817.15
733.64	3878.15
733.893	4020.15
734.145	3931.15
734.397	3752.15
734.649	3769.15
734.901	3847.15
735.154	3780.15
735.406	3685.15
735.658	3757.15
735.91	3914.15
736.162	3816.15
736.414	3693.15
736.667	3778.15
736.919	3802.15
737.171	3690.15
737.423	3639.15
737.675	3706.15
737.927	3827.15
738.179	3726.15
738.431	3634.15
738.684	3619.15
738.936	3690.15
739.188	3734.15
739.44	3514.15
739.692	3542.15
739.944	3581.15
740.196	3581.15
740.448	3551.15
740.7	3562.15
740.952	3576.15
741.204	3582.15
741.456	3472.15
741.708	3553.15
741.96	3545.15
742.212	3596.15
742.464	3553.15
742.716	3451.15
742.968	3526.15
743.22	3451.15
743.472	3380.15
743.724	3471.15
743.976	3588.15
744.228	3590.15
744.48	3349.15
744.732	3331.15
744.983	3472.15
745.235	3477.15
745.487	3445.15
745.739	3481.15
745.991	3470.15
746.243	3507.15
746.495	3353.15
746.747	3343.15
746.999	3459.15
747.25	3483.15
747.502	3416.15
747.754	3475.15
748.006	3428.15
748.258	3509.15
748.51	3487.15
748.761	3309.15
749.013	3422.15
749.265	3515.15
749.517	3453.15
749.768	3492.15
750.02	3498.15
750.272	3403.15
750.524	3257.15
750.776	3218.15
751.027	3388.15
751.279	3397.15
751.531	3215.15
751.782	3317.15
752.034	3406.15
752.286	3282.15
752.538	3150.15
752.789	3217.15
753.041	3318.15
753.293	3290.15
753.544	3197.15
753.796	3222.15
754.048	3320.15
754.299	3292.15
754.551	3216.15
754.803	3155.15
755.054	3242.15
755.306	3298.15
755.558	3176.15
755.809	3149.15
756.061	3284.15
756.312	3182.15
756.564	3151.15
756.816	3179.15
757.067	3174.15
757.319	3126.15
757.57	3090.15
757.822	3151.15
758.073	3211.15
758.325	3152.15
758.577	3038.15
758.828	3077.15
759.08	3255.15
759.331	3221.15
759.583	3019.15
759.834	3100.15
760.086	3071.15
760.337	3076.15
760.589	3010.15
760.84	3036.15
761.092	3076.15
761.343	3051.15
761.595	2892.15
761.846	2994.15
762.097	3054.15
762.349	2984.15
762.6	2824.15
762.852	2996.15
763.103	3140.15
763.355	2989.15
763.606	2916.15
763.857	3032.15
764.109	3095.15
764.36	2957.15
764.612	2900.15
764.863	3015.15
765.114	2979.15
765.366	2833.15
765.617	2776.15
765.868	2853.15
766.12	2995.15
766.371	2970.15
766.622	2768.15
766.874	2858.15
767.125	3008.15
767.376	2868.15
767.628	2788.15
767.879	2807.15
768.13	2897.15
768.381	2924.15
768.633	2835.15
768.884	2829.15
769.135	2918.15
769.386	2869.15
769.638	2784.15
769.889	2813.15
770.14	2827.15
770.391	2716.15
770.643	2665.15
770.894	2682.15
771.145	2804.15
771.396	2717.15
771.647	2616.15
771.899	2773.15
772.15	2820.15
772.401	2750.15
772.652	2624.15
772.903	2656.15
773.154	2990.15
773.406	3219.15
773.657	2679.15
773.908	2649.15
774.159	2720.15
774.41	2730.15
774.661	2624.15
774.912	2640.15
775.163	2757.15
775.414	2788.15
775.666	2530.15
775.917	2547.15
776.168	2590.15
776.419	2545.15
776.67	2505.15
776.921	2511.15
777.172	2591.15
777.423	2612.15
777.674	2673.15
777.925	2662.15
778.176	2535.15
778.427	2541.15
778.678	2482.15
778.929	2533.15
779.18	2616.15
779.431	2475.15
779.682	2469.15
779.933	2544.15
780.184	2554.15
780.435	2524.15
780.686	2458.15
780.937	2520.15
781.188	2555.15
781.439	2643.15
781.69	2563.15
781.941	2531.15
782.191	2534.15
782.442	2521.15
782.693	2394.15
782.944	2373.15
783.195	2472.15
783.446	2488.15
783.697	2479.15
783.948	2402.15
784.199	2447.15
784.449	2427.15
784.7	2412.15
784.951	2416.15
785.202	2556.15
785.453	2490.15
785.704	2279.15
785.954	2286.15
786.205	2369.15
786.456	2319.15
786.707	2258.15
786.958	2249.15
787.208	2363.15
787.459	2318.15
787.71	2301.15
787.961	2267.15
788.211	2318.15
788.462	2353.15
788.713	2283.15
788.964	2300.15
789.214	2390.15
789.465	2368.15
789.716	2299.15
789.967	2308.15
790.217	2302.15
790.468	2272.15
790.719	2184.15
790.969	2226.15
791.22	2267.15
791.471	2313.15
791.721	2325.15
791.972	2254.15
792.223	2290.15
792.473	2207.15
792.724	2164.15
792.975	2189.15
793.225	2263.15
793.476	2194.15
793.726	2159.15
793.977	2246.15
794.228	2365.15
794.478	2238.15
794.729	2119.15
794.979	2249.15
795.23	2280.15
795.481	2188.15
795.731	2120.15
795.982	2165.15
796.232	2181.15
796.483	2120.15
796.733	2069.15
796.984	2129.15
797.234	2172.15
797.485	2207.15
797.735	2044.15
797.986	2114.15
798.236	2229.15
798.487	2091.15
798.737	2068.15
798.988	2186.15
799.238	2238.15
799.489	2114.15
799.739	2010.15
799.99	2084.15
800.24	2197.15
800.491	2249.15
800.741	2097.15
800.991	2017.15
801.242	2085.15
801.492	2109.15
801.743	2014.15
801.993	2251.15
802.244	2469.15
802.494	2126.15
802.744	2032.15
802.995	2049.15
803.245	2066.15
803.495	2034.15
803.746	1965.15
803.996	2045.15
804.246	2056.15
804.497	2081.15
804.747	1947.15
804.997	2021.15
805.248	2013.15
805.498	1966.15
805.748	1984.15
805.999	1912.15
806.249	1969.15
806.499	1956.15
806.75	1880.15
807	1880.15
807.25	1968.15
807.5	1926.15
807.751	1911.15
808.001	1970.15
808.251	1996.15
808.501	2044.15
808.752	2004.15
809.002	1959.15
809.252	1950.15
809.502	1909.15
809.752	1855.15
810.003	1825.15
810.253	1930.15
810.503	1942.15
810.753	1952.15
811.003	1970.15
811.254	1993.15
811.504	1915.15
811.754	1887.15
812.004	1899.15
812.254	2125.15
812.504	1978.15
812.754	1853.15
813.005	1892.15
813.255	1963.15
813.505	1904.15
813.755	1800.15
814.005	1860.15
814.255	1883.15
814.505	1869.15
814.755	1768.15
815.005	1791.15
815.255	1905.15
815.505	1853.15
815.756	1856.15
816.006	1828.15
816.256	1776.15
816.506	1774.15
816.756	1722.15
817.006	1733.15
817.256	1825.15
817.506	1803.15
817.756	1759.15
818.006	1799.15
818.256	1829.15
818.506	1801.15
818.756	1673.15
819.006	1742.15
819.256	1812.15
819.506	1739.15
819.756	1682.15
820.006	1757.15
820.255	1798.15
820.505	1789.15
820.755	1676.15
821.005	1718.15
821.255	1828.15
821.505	1759.15
821.755	1680.15
822.005	1749.15
822.255	1827.15
822.505	1734.15
822.755	1757.15
823.004	1650.15
823.254	1672.15
823.504	1753.15
823.754	1745.15
824.004	1663.15
824.254	1749.15
824.504	1745.15
824.753	1782.15
825.003	1772.15
825.253	1810.15
825.503	1681.15
825.753	1649.15
826.002	1717.15
826.252	1893.15
826.502	1733.15
826.752	1633.15
827.002	1639.15
827.251	1730.15
827.501	1668.15
827.751	1626.15
828.001	1656.15
828.25	1743.15
828.5	1578.15
828.75	1547.15
829	1640.15
829.249	1756.15
829.499	1626.15
829.749	1594.15
829.998	1649.15
830.248	1682.15
830.498	1562.15
830.748	1569.15
830.997	1626.15
831.247	1701.15
831.497	1710.15
831.746	1588.15
831.996	1662.15
832.246	1787.15
832.495	1787.15
832.745	1534.15
832.994	1546.15
833.244	1698.15
833.494	1594.15
833.743	1507.15
833.993	1577.15
834.243	1624.15
834.492	1571.15
834.742	1553.15
834.991	1534.15
835.241	1719.15
835.49	1565.15
835.74	1463.15
835.99	1546.15
836.239	1642.15
836.489	1678.15
836.738	1552.15
836.988	1449.15
837.237	1574.15
837.487	1641.15
837.736	1501.15
837.986	1494.15
838.235	1578.15
838.485	1550.15
838.734	1528.15
838.984	1590.15
839.233	1566.15
839.483	1448.15
839.732	1405.15
839.982	1481.15
840.231	1579.15
840.481	1572.15
840.73	1432.15
840.979	1493.15
841.229	1511.15
841.478	1516.15
841.728	1364.15
841.977	1358.15
842.227	1405.15
842.476	1379.15
842.725	1364.15
842.975	1408.15
843.224	1505.15
843.474	1528.15
843.723	1432.15
843.972	1429.15
844.222	1446.15
844.471	1508.15
844.72	1402.15
844.97	1393.15
845.219	1476.15
845.468	1474.15
845.718	1408.15
845.967	1436.15
846.216	1478.15
846.466	1508.15
846.715	1371.15
846.964	1393.15
847.214	1390.15
847.463	1331.15
847.712	1346.15
847.961	1320.15
848.211	1402.15
848.46	1422.15
848.709	1333.15
848.958	1289.15
849.208	1345.15
849.457	1358.15
849.706	1346.15
849.955	1319.15
850.205	1323.15
850.454	1470.15
850.703	1493.15
850.952	1399.15
851.201	1430.15
851.451	1390.15
851.7	1368.15
851.949	1260.15
852.198	1349.15
852.447	1318.15
852.696	1229.15
852.946	1284.15
853.195	1416.15
853.444	1404.15
853.693	1198.15
853.942	1214.15
854.191	1328.15
854.44	1345.15
854.689	1279.15
854.939	1233.15
855.188	1212.15
855.437	1245.15
855.686	1217.15
855.935	1260.15
856.184	1333.15
856.433	1353.15
856.682	1292.15
856.931	1282.15
857.18	1273.15
857.429	1213.15
857.678	1183.15
857.927	1254.15
858.176	1277.15
858.425	1183.15
858.674	1107.15
858.924	1200.15
859.173	1225.15
859.422	1233.15
859.671	1111.15
859.92	1148.15
860.169	1191.15
860.417	1243.15
860.666	1191.15
860.915	1156.15
861.164	1185.15
861.413	1120.15
861.662	1082.15
861.911	1133.15
862.16	1270.15
862.409	1212.15
862.658	1041.15
862.907	1088.15
863.156	1203.15
863.405	1208.15
863.654	1093.15
863.903	1039.15
864.151	1128.15
864.4	1146.15
864.649	1089.15
864.898	1152.15
865.147	1193.15
865.396	1188.15
865.645	1078.15
865.894	1132.15
866.142	1262.15
866.391	1161.15
866.64	1038.15
866.889	1131.15
867.138	1277.15
867.387	1166.15
867.635	1054.15
867.884	1105.15
868.133	1189.15
868.382	1120.15
868.631	1004.15
868.879	1006.15
869.128	1125.15
869.377	1118.15
869.626	1034.15
869.874	1044.15
870.123	1149.15
870.372	1101.15
870.621	972.15
870.869	1020.15
871.118	1127.15
871.367	1096.15
871.616	986.15
871.864	1060.15
872.113	1106.15
872.362	1075.15
872.61	996.15
872.859	1066.15
873.108	1143.15
873.357	1022.15
873.605	926.15
873.854	981.15
874.103	993.15
874.351	969.15
874.6	954.15
874.848	999.15
875.097	1021.15
875.346	1022.15
875.594	937.15
875.843	1040.15
876.092	1172.15
876.34	1051.15
876.589	964.15
876.837	886.15
877.086	966.15
877.335	1026.15
877.583	1000.15
877.832	1028.15
878.08	1130.15
878.329	1030.15
878.578	951.15
878.826	968.15
879.075	1023.15
879.323	1017.15
879.572	947.15
879.82	1073.15
880.069	1033.15
880.317	1025.15
880.566	900.15
880.814	1006.15
881.063	1125.15
881.311	1012.15
881.56	1023.15
881.808	945.15
882.057	976.15
882.305	959.15
882.554	976.15
882.802	892.15
883.051	943.15
883.299	925.15
883.548	873.15
883.796	958.15
884.045	963.15
884.293	895.15
884.541	800.15
884.79	780.15
885.038	897.15
885.287	901.15
885.535	902.15
885.783	907.15
886.032	859.15
886.28	851.15
886.529	808.15
886.777	844.15
887.025	1008.15
887.274	885.15
887.522	836.15
887.77	836.15
888.019	846.15
888.267	820.15
888.516	747.15
888.764	803.15
889.012	868.15
889.261	838.15
889.509	778.15
889.757	806.15
890.005	855.15
890.254	784.15
890.502	802.15
890.75	993.15
890.999	984.15
891.247	898.15
891.495	868.15
891.743	825.15
891.992	956.15
892.24	869.15
892.488	758.15
892.737	783.15
892.985	869.15
893.233	859.15
893.481	800.15
893.729	777.15
893.978	922.15
894.226	919.15
894.474	780.15
894.722	785.15
894.97	814.15
895.219	790.15
895.467	818.15
895.715	853.15
895.963	832.15
896.211	775.15
896.46	678.15
896.708	801.15
896.956	882.15
897.204	932.15
897.452	835.15
897.7	768.15
897.948	831.15
898.197	780.15
898.445	729.15
898.693	744.15
898.941	803.15
899.189	796.15
899.437	734.15
899.685	821.15
899.933	761.15
900.181	759.15
900.43	678.15
900.678	713.15
900.926	790.15
901.174	754.15
901.422	692.15
901.67	720.15
901.918	777.15
902.166	766.15
902.414	620.15
902.662	682.15
902.91	778.15
903.158	758.15
903.406	698.15
903.654	708.15
903.902	748.15
904.15	713.15
904.398	595.15
904.646	693.15
904.894	783.15
905.142	808.15
905.39	749.15
905.638	643.15
905.886	671.15
906.134	677.15
906.382	678.15
906.63	648.15
906.878	735.15
907.126	704.15
907.374	636.15
907.622	654.15
907.869	790.15
908.117	761.15
908.365	655.15
908.613	624.15
908.861	637.15
909.109	598.15
909.357	562.15
909.605	648.15
909.853	724.15
910.1	660.15
910.348	486.15
910.596	530.15
910.844	709.15
911.092	724.15
911.34	613.15
911.588	637.15
911.835	688.15
912.083	677.15
912.331	642.15
912.579	681.15
912.827	863.15
913.075	733.15
913.322	583.15
913.57	586.15
913.818	712.15
914.066	662.15
914.313	593.15
914.561	661.15
914.809	689.15
915.057	646.15
915.305	610.15
915.552	587.15
915.8	694.15
916.048	613.15
916.296	533.15
916.543	631.15
916.791	707.15
917.039	672.15
917.286	551.15
917.534	566.15
917.782	655.15
918.03	587.15
918.277	479.15
918.525	499.15
918.773	590.15
919.02	584.15
919.268	532.15
919.516	557.15
919.763	563.15
920.011	581.15
920.259	484.15
920.506	582.15
920.754	670.15
921.002	640.15
921.249	582.15
921.497	548.15
921.745	568.15
921.992	588.15
922.24	472.15
922.487	597.15
922.735	743.15
922.983	662.15
923.23	554.15
923.478	484.15
923.725	558.15
923.973	590.15
924.221	559.15
924.468	608.15
924.716	608.15
924.963	556.15
925.211	489.15
925.458	544.15
925.706	671.15
925.953	703.15
926.201	512.15
926.448	473.15
926.696	582.15
926.944	555.15
927.191	459.15
927.439	493.15
927.686	529.15
927.934	549.15
928.181	429.15
928.429	437.15
928.676	506.15
928.923	432.15
929.171	398.15
929.418	535.15
929.666	580.15
929.913	586.15
930.161	374.15
930.408	407.15
930.656	501.15
930.903	536.15
931.151	402.15
931.398	472.15
931.645	574.15
931.893	462.15
932.14	439.15
932.388	442.15
932.635	586.15
932.882	635.15
933.13	512.15
933.377	432.15
933.625	535.15
933.872	458.15
934.119	383.15
934.367	447.15
934.614	446.15
934.861	414.15
935.109	409.15
935.356	475.15
935.603	505.15
935.851	452.15
936.098	396.15
936.345	503.15
936.593	535.15
936.84	469.15
937.087	326.15
937.335	398.15
937.582	466.15
937.829	468.15
938.077	434.15
938.324	424.15
938.571	501.15
938.818	409.15
939.066	351.15
939.313	341.15
939.56	457.15
939.807	477.15
940.055	367.15
940.302	405.15
940.549	553.15
940.796	466.15
941.044	399.15
941.291	436.15
941.538	593.15
941.785	461.15
942.033	413.15
942.28	472.15
942.527	498.15
942.774	486.15
943.021	325.15
943.269	367.15
943.516	484.15
943.763	472.15
944.01	407.15
944.257	477.15
944.504	529.15
944.752	490.15
944.999	437.15
945.246	365.15
945.493	436.15
945.74	424.15
945.987	345.15
946.234	426.15
946.482	506.15
946.729	387.15
946.976	336.15
947.223	370.15
947.47	517.15
947.717	466.15
947.964	484.15
948.211	447.15
948.458	484.15
948.705	434.15
948.952	330.15
949.2	409.15
949.447	529.15
949.694	508.15
949.941	359.15
950.188	345.15
950.435	373.15
950.682	410.15
950.929	285.15
951.176	344.15
951.423	486.15
951.67	455.15
951.917	411.15
952.164	401.15
952.411	468.15
952.658	506.15
952.905	349.15
953.152	300.15
953.399	431.15
953.646	410.15
953.893	287.15
954.14	328.15
954.387	373.15
954.634	365.15
954.881	300.15
955.128	363.15
955.375	365.15
955.622	358.15
955.869	354.15
956.115	345.15
956.362	421.15
956.609	380.15
956.856	293.15
957.103	302.15
957.35	412.15
957.597	427.15
957.844	346.15
958.091	343.15
958.338	434.15
958.585	393.15
958.831	221.15
959.078	274.15
959.325	425.15
959.572	318.15
959.819	231.15
960.066	195.15
960.313	332.15
960.559	307.15
960.806	174.15
961.053	225.15
961.3	399.15
961.547	412.15
961.794	220.15
962.04	393.15
962.287	400.15
962.534	258.15
962.781	244.15
963.028	325.15
963.274	436.15
963.521	349.15
963.768	260.15
964.015	297.15
964.262	455.15
964.508	292.15
964.755	204.15
965.002	233.15
965.249	277.15
965.495	221.15
965.742	186.15
965.989	221.15
966.236	344.15
966.482	261.15
966.729	205.15
966.976	200.15
967.222	268.15
967.469	281.15
967.716	210.15
967.963	218.15
968.209	287.15
968.456	247.15
968.703	152.15
968.949	257.15
969.196	416.15
969.443	424.15
969.689	179.15
969.936	156.15
970.183	275.15
970.429	215.15
970.676	174.15
970.923	241.15
971.169	294.15
971.416	215.15
971.663	176.15
971.909	229.15
972.156	309.15
972.402	305.15
972.649	216.15
972.896	249.15
973.142	273.15
973.389	278.15
973.635	197.15
973.882	294.15
974.129	352.15
974.375	250.15
974.622	148.15
974.868	156.15
975.115	261.15
975.361	220.15
975.608	173.15
975.855	267.15
976.101	310.15
976.348	229.15
976.594	176.15
976.841	228.15
977.087	234.15
977.334	286.15
977.58	135.15
977.827	150.15
978.073	285.15
978.32	266.15
978.566	119.15
978.813	202.15
979.059	229.15
979.306	203.15
979.552	110.15
979.799	187.15
980.045	214.15
980.292	221.15
980.538	153.15
980.785	140.15
981.031	181.15
981.278	142.15
981.524	76.15
981.771	226.15
982.017	360.15
982.263	268.15
982.51	124.15
982.756	186.15
983.003	261.15
983.249	203.15
983.495	113.15
983.742	98.15
983.988	180.15
984.235	205.15
984.481	110.15
984.727	115.15
984.974	250.15
985.22	258.15
985.467	161.15
985.713	159.15
985.959	268.15
986.206	240.15
986.452	152.15
986.698	197.15
986.945	221.15
987.191	255.15
987.437	255.15
987.684	198.15
987.93	353.15
988.176	260.15
988.423	76.15
988.669	151.15
988.915	321.15
989.162	188.15
989.408	68.15
989.654	144.15
989.901	176.15
990.147	177.15
990.393	183.15
990.639	217.15
990.886	235.15
991.132	283.15
991.378	246.15
991.625	365.15
991.871	343.15
992.117	245.15
992.363	198.15
992.61	201.15
992.856	314.15
993.102	180.15
993.348	117.15
993.594	145.15
993.841	177.15
994.087	299.15
994.333	171.15
994.579	162.15
994.826	201.15
995.072	205.15
995.318	32.15
995.564	88.15
995.81	205.15
996.057	158.15
996.303	68.15
996.549	94.15
996.795	181.15
997.041	158.15
997.287	125.15
997.534	128.15
997.78	167.15
998.026	177.15
998.272	69.15
998.518	77.15
998.764	222.15
999.01	233.15
999.256	139.15
999.503	107.15
999.749	135.15
999.995	81.15
1000.241	52.15
1000.487	133.15
1000.733	185.15
1000.979	150.15
1001.225	120.15
1001.471	164.15
1001.718	212.15
1001.964	247.15
1002.21	86.15
1002.456	117.15
1002.702	252.15
1002.948	157.15
1003.194	86.15
1003.44	60.15
1003.686	162.15
1003.932	100.15
1004.178	60.15
1004.424	140.15
1004.67	258.15
1004.916	233.15
1005.162	143.15
1005.408	86.15
1005.654	209.15
1005.9	64.15
1006.146	16.15
1006.392	99.15
1006.638	186.15
1006.884	150.15
1007.13	52.15
1007.376	39.15
1007.622	214.15
1007.868	215.15
1008.114	83.15
1008.36	144.15
1008.606	190.15
1008.852	214.15
1009.098	139.15
1009.344	171.15
1009.59	139.15
1009.836	31.15
1010.082	-34.85
1010.328	64.15
1010.574	152.15
1010.82	64.15
1011.065	-27.85
1011.311	1.15
1011.557	119.15
1011.803	85.15
1012.049	20.15
1012.295	65.15
1012.541	112.15
1012.787	105.15
1013.033	-14.85
1013.278	-22.85
1013.524	107.15
1013.77	186.15
1014.016	82.15
1014.262	85.15
1014.508	195.15
1014.754	34.15
1015	9.15
1015.245	163.15
1015.491	172.15
1015.737	155.15
1015.983	17.15
1016.229	-10.85
1016.475	90.15
1016.72	223.15
1016.966	247.15
1017.212	134.15
1017.458	186.15
1017.704	126.15
1017.949	-27.85
1018.195	146.15
1018.441	235.15
1018.687	176.15
1018.933	48.15
1019.178	38.15
1019.424	187.15
1019.67	209.15
1019.916	8.15
1020.161	45.15
1020.407	114.15
1020.653	57.15
1020.899	-5.85
1021.144	61.15
1021.39	139.15
1021.636	43.15
1021.882	-42.85
1022.127	60.15
1022.373	207.15
1022.619	160.15
1022.865	37.15
1023.11	40.15
1023.356	156.15
1023.602	77.15
1023.847	24.15
1024.093	73.15
1024.339	39.15
1024.584	38.15
1024.83	10.15
1025.076	19.15
1025.321	134.15
1025.567	109.15
1025.813	4.15
1026.058	104.15
1026.304	153.15
1026.55	68.15
1026.795	31.15
1027.041	37.15
1027.287	98.15
1027.532	113.15
1027.778	89.15
1028.024	54.15
1028.269	97.15
1028.515	11.15
1028.76	-44.85
1029.006	37.15
1029.252	148.15
1029.497	72.15
1029.743	37.15
1029.989	-20.85
1030.234	118.15
1030.48	191.15
1030.725	-3.85
1030.971	38.15
1031.216	159.15
1031.462	76.15
1031.708	-66.85
1031.953	-30.85
1032.199	56.15
1032.444	63.15
1032.69	-9.85
1032.935	10.15
1033.181	136.15
1033.426	18.15
1033.672	-124.85
1033.918	-74.85
1034.163	23.15
1034.409	7.15
1034.654	-27.85
1034.9	93.15
1035.145	144.15
1035.391	62.15
1035.636	-71.85
1035.882	11.15
1036.127	14.15
1036.373	-24.85
1036.618	-109.85
1036.864	4.15
1037.109	126.15
1037.355	28.15
1037.6	-40.85
1037.845	-1.85
1038.091	181.15
1038.336	139.15
1038.582	143.15
1038.827	224.15
1039.073	79.15
1039.318	-9.85
1039.564	-101.85
1039.809	-28.85
1040.055	133.15
1040.3	130.15
1040.545	-17.85
1040.791	-19.85
1041.036	41.15
1041.282	63.15
1041.527	117.15
1041.772	-50.85
1042.018	18.15
1042.263	48.15
1042.509	-110.85
1042.754	-53.85
1042.999	75.15
1043.245	33.15
1043.49	-137.85
1043.736	-46.85
1043.981	43.15
1044.226	30.15
1044.472	9.15
1044.717	20.15
1044.962	125.15
1045.208	41.15
1045.453	-178.85
1045.698	-101.85
1045.944	108.15
1046.189	54.15
1046.434	-26.85
1046.68	-18.85
1046.925	142.15
1047.17	0.15
1047.416	-163.85
1047.661	-58.85
1047.906	73.15
1048.152	60.15
1048.397	-35.85
1048.642	-40.85
1048.887	128.15
1049.133	149.15
1049.378	-25.85
1049.623	-46.85
1049.869	57.15
1050.114	1.15
1050.359	-55.85
1050.604	-3.85
1050.85	163.15
1051.095	24.15
1051.34	-75.85
1051.585	-2.85
1051.831	188.15
1052.076	24.15
1052.321	-189.85
1052.566	-71.85
1052.812	124.15
1053.057	32.15
1053.302	-39.85
1053.547	45.15
1053.792	106.15
1054.038	84.15
1054.283	-106.85
1054.528	-36.85
1054.773	31.15
1055.018	28.15
1055.264	-87.85
1055.509	-91.85
1055.754	46.15
1055.999	-19.85
1056.244	-98.85
1056.49	-53.85
1056.735	36.15
1056.98	-11.85
1057.225	-104.85
1057.47	81.15
1057.715	1.15
1057.96	-78.85
1058.206	-121.85
1058.451	-8.85
1058.696	106.15
1058.941	45.15
1059.186	-118.85
1059.431	-88.85
1059.676	113.15
1059.922	56.15
1060.167	130.15
1060.412	286.15
1060.657	76.15
1060.902	11.15
1061.147	-150.85
1061.392	-63.85
1061.637	84.15
1061.882	16.15
1062.127	-127.85
1062.373	-123.85
1062.618	127.15
1062.863	150.15
1063.108	-51.85
1063.353	-110.85
1063.598	-6.85
1063.843	-20.85
1064.088	-113.85
1064.333	-109.85
1064.578	47.15
1064.823	65.15
1065.068	-165.85
1065.313	-103.85
1065.558	54.15
1065.803	47.15
1066.048	-121.85
1066.293	-122.85
1066.538	84.15
1066.783	28.15
1067.028	-164.85
1067.273	-137.85
1067.518	45.15
1067.763	-16.85
1068.008	-173.85
1068.253	-106.85
1068.498	68.15
1068.743	18.15
1068.988	-128.85
1069.233	-122.85
1069.478	89.15
1069.723	137.15
1069.968	-59.85
1070.213	-12.85
1070.458	88.15
1070.703	-25.85
1070.948	-196.85
1071.193	-67.85
1071.438	72.15
1071.683	94.15
1071.928	-33.85
1072.173	-47.85
1072.418	26.15
1072.663	-7.85
1072.908	-133.85
1073.152	-78.85
1073.397	75.15
1073.642	-30.85
1073.887	-78.85
1074.132	29.15
1074.377	29.15
1074.622	-1.85
1074.867	-143.85
1075.112	-47.85
1075.357	143.15
1075.601	-7.85
1075.846	-79.85
1076.091	18.15
1076.336	66.15
1076.581	-74.85
1076.826	-169.85
1077.071	-69.85
1077.315	171.15
1077.56	99.15
1077.805	-118.85
1078.05	-57.85
1078.295	-10.85
1078.54	-38.85
1078.785	-165.85
1079.029	-96.85
1079.274	71.15
1079.519	-54.85
1079.764	-148.85
1080.009	-44.85
1080.253	28.15
1080.498	-54.85
1080.743	-203.85
1080.988	-62.85
1081.233	162.15
1081.478	100.15
1081.722	-126.85
1081.967	-7.85
1082.212	148.15
1082.457	42.15
1082.701	-94.85
1082.946	-69.85
1083.191	64.15
1083.436	-52.85
1083.681	-209.85
1083.925	-120.85
1084.17	-3.85
1084.415	44.15
1084.66	-175.85
1084.904	-80.85
1085.149	10.15
1085.394	-33.85
1085.639	-201.85
1085.883	-82.85
1086.128	168.15
1086.373	156.15
1086.617	-68.85
1086.862	-139.85
1087.107	-7.85
1087.352	-58.85
1087.596	-150.85
1087.841	-20.85
1088.086	33.15
1088.33	11.15
1088.575	-225.85
1088.82	-92.85
1089.064	71.15
1089.309	-69.85
1089.554	-185.85
1089.798	-134.85
1090.043	48.15
1090.288	-25.85
1090.533	-203.85
1090.777	-109.85
1091.022	33.15
1091.266	54.15
1091.511	-113.85
1091.756	-39.85
1092	111.15
1092.245	89.15
1092.49	-143.85
1092.734	-97.85
1092.979	91.15
1093.224	-19.85
1093.468	-161.85
1093.713	-76.85
1093.957	19.15
1094.202	-42.85
1094.447	-218.85
1094.691	-107.85
1094.936	35.15
1095.181	2.15
1095.425	-182.85
1095.67	-147.85
1095.914	24.15
1096.159	7.15
1096.403	-160.85
1096.648	-55.85
1096.893	84.15
1097.137	-69.85
1097.382	-222.85
1097.626	-154.85
1097.871	23.15
1098.115	-30.85
1098.36	-198.85
1098.605	-110.85
1098.849	-31.85
1099.094	-101.85
1099.338	-189.85
1099.583	-97.85
1099.827	125.15
1100.072	34.15
1100.316	-160.85
1100.561	-89.85
1100.805	49.15
1101.05	16.15
1101.294	-173.85
1101.539	-152.85
1101.783	2.15
1102.028	-11.85
1102.273	-143.85
1102.517	-71.85
1102.761	55.15
1103.006	-56.85
1103.25	-265.85
1103.495	-159.85
1103.739	45.15
1103.984	78.15
1104.228	-113.85
1104.473	-32.85
1104.717	28.15
1104.962	-9.85
1105.206	-125.85
1105.451	-158.85
1105.695	-1.85
1105.94	-15.85
1106.184	-153.85
1106.429	-90.85
1106.673	18.15
1106.917	63.15
1107.162	-161.85
1107.406	-28.85
1107.651	123.15
1107.895	-87.85
1108.14	-193.85
1108.384	-104.85
1108.628	112.15
1108.873	118.15
1109.117	-127.85
1109.362	-111.85
1109.606	-26.85
1109.85	-27.85
1110.095	-167.85
1110.339	-94.85
1110.584	85.15
1110.828	38.15
1111.072	-101.85
1111.317	-122.85
1111.561	-15.85
1111.806	-31.85
1112.05	-171.85
1112.294	-85.85
1112.539	22.15
1112.783	-0.85
1113.027	-113.85
1113.272	-106.85
1113.516	-9.85
1113.76	-45.85
1114.005	-155.85
1114.249	-93.85
1114.493	59.15
1114.738	99.15
1114.982	-43.85
1115.226	-77.85
1115.471	13.15
1115.715	-15.85
1115.959	-179.85
1116.204	-175.85
1116.448	-3.85
1116.692	-104.85
1116.937	-176.85
1117.181	-15.85
1117.425	-13.85
1117.67	-71.85
1117.914	-146.85
1118.158	-90.85
1118.402	143.15
1118.647	74.15
1118.891	-86.85
1119.135	-27.85
1119.38	97.15
1119.624	8.15
1119.868	-158.85
1120.112	-149.85
1120.357	-58.85
1120.601	-123.85
1120.845	-210.85
1121.089	-137.85
1121.334	38.15
