Data from HR4C21111__1__09-39-26-673.txt Node

Date: Mon Feb 22 09:39:26 IST 2021
User: Kapil
Spectrometer: HR4C2111
Trigger mode: 4
Integration Time (sec): 2.300000E0
Scans to average: 1
Electric dark correction enabled: true
Nonlinearity correction enabled: false
Boxcar width: 0
XAxis mode: Wavelengths
Number of Pixels in Spectrum: 3648
>>>>>Begin Spectral Data<<<<<
189.472	-444
189.745	-444
190.017	-444
190.289	-457
190.561	-283
190.834	-9
191.106	-108
191.378	29
191.65	8
191.923	-145
192.195	-113
192.467	125
192.739	106
193.011	-21
193.284	74
193.556	167
193.828	-8
194.1	-105
194.372	-137
194.644	52
194.916	82
195.188	-152
195.46	-77
195.732	38
196.004	-11
196.276	-108
196.548	-66
196.82	78
197.092	71
197.364	-137
197.636	-105
197.908	10
198.18	-53
198.452	-92
198.724	-47
198.996	64
199.268	73
199.54	-28
199.811	-109
200.083	88
200.355	17
200.627	-189
200.899	-58
201.171	52
201.442	-74
201.714	-192
201.986	-93
202.258	59
202.529	97
202.801	-10
203.073	85
203.345	188
203.616	13
203.888	-137
204.16	-144
204.431	69
204.703	-5
204.974	-132
205.246	-12
205.518	171
205.789	1
206.061	-133
206.332	-91
206.604	13
206.876	95
207.147	139
207.419	26
207.69	138
207.962	-21
208.233	-185
208.505	3
208.776	164
209.047	71
209.319	-133
209.59	-87
209.862	139
210.133	51
210.404	-138
210.676	-106
210.947	70
211.219	66
211.49	-128
211.761	-53
212.033	31
212.304	-52
212.575	-180
212.846	-74
213.118	42
213.389	-48
213.66	-111
213.931	-39
214.203	24
214.474	-33
214.745	-130
215.016	128
215.287	436
215.559	73
215.83	-122
216.101	-69
216.372	8
216.643	58
216.914	-20
217.185	-82
217.456	149
217.727	14
217.998	-153
218.269	-43
218.54	43
218.811	-11
219.082	-103
219.353	-64
219.624	0
219.895	-33
220.166	-128
220.437	-108
220.708	97
220.979	4
221.25	-126
221.521	-100
221.792	23
222.063	90
222.334	21
222.604	168
222.875	174
223.146	83
223.417	-165
223.688	-38
223.958	119
224.229	-51
224.5	-187
224.771	-85
225.041	68
225.312	31
225.583	-115
225.854	-51
226.124	90
226.395	-17
226.666	-128
226.936	-97
227.207	64
227.478	-40
227.748	-93
228.019	54
228.289	256
228.56	-31
228.831	-56
229.101	42
229.372	54
229.642	-16
229.913	-170
230.183	-116
230.454	3
230.724	15
230.995	-89
231.265	-51
231.536	77
231.806	48
232.076	-116
232.347	-127
232.617	31
232.888	27
233.158	-54
233.428	-115
233.699	-15
233.969	-56
234.239	-144
234.51	-85
234.78	55
235.05	-16
235.321	-127
235.591	-69
235.861	57
236.131	-64
236.402	-195
236.672	-99
236.942	43
237.212	45
237.483	-64
237.753	2
238.023	164
238.293	28
238.563	-71
238.833	-105
239.103	56
239.374	-10
239.644	-133
239.914	-27
240.184	127
240.454	-13
240.724	-171
240.994	-67
241.264	17
241.534	52
241.804	-27
242.074	-75
242.344	-28
242.614	-71
242.884	-185
243.154	-121
243.424	45
243.694	75
243.964	-95
244.234	-72
244.503	116
244.773	1
245.043	-218
245.313	-133
245.583	129
245.853	96
246.123	-162
246.392	-111
246.662	18
246.932	-21
247.202	-179
247.471	-70
247.741	241
248.011	89
248.281	-138
248.55	-86
248.82	64
249.09	-6
249.359	-95
249.629	-76
249.899	50
250.168	51
250.438	-23
250.708	-108
250.977	85
251.247	69
251.516	-109
251.786	-56
252.055	116
252.325	12
252.595	-106
252.864	-61
253.134	59
253.403	-23
253.673	-164
253.942	-110
254.212	39
254.481	9
254.75	-120
255.02	-65
255.289	74
255.559	-13
255.828	-124
256.097	-29
256.367	38
256.636	-62
256.906	-145
257.175	-10
257.444	246
257.714	68
257.983	-58
258.252	-32
258.521	10
258.791	51
259.06	-100
259.329	-56
259.598	52
259.868	-7
260.137	-117
260.406	25
260.675	84
260.944	36
261.214	-121
261.483	-37
261.752	186
262.021	25
262.29	-154
262.559	-119
262.828	10
263.097	-47
263.366	-195
263.635	-87
263.905	132
264.174	14
264.443	-196
264.712	-105
264.981	55
265.25	-34
265.519	-136
265.788	-131
266.057	35
266.325	67
266.594	-51
266.863	-117
267.132	46
267.401	15
267.67	-183
267.939	-127
268.208	52
268.477	88
268.745	-114
269.014	-94
269.283	147
269.552	39
269.821	-117
270.089	-17
270.358	-11
270.627	-25
270.896	-138
271.164	-161
271.433	27
271.702	87
271.971	-143
272.239	-120
272.508	28
272.777	-33
273.045	-16
273.314	-25
273.583	109
273.851	-5
274.12	-139
274.388	-119
274.657	7
274.926	-8
275.194	-151
275.463	-72
275.731	28
276	174
276.268	363
276.537	-70
276.805	27
277.074	39
277.342	-153
277.611	-88
277.879	99
278.148	38
278.416	-127
278.684	-105
278.953	-14
279.221	-30
279.49	-180
279.758	-99
280.026	-3
280.295	17
280.563	-114
280.831	502
281.1	1361
281.368	144
281.636	-113
281.904	-113
282.173	8
282.441	-31
282.709	-70
282.977	36
283.246	49
283.514	-32
283.782	-70
284.05	25
284.318	78
284.587	-17
284.855	-123
285.123	-45
285.391	74
285.659	55
285.927	-144
286.195	-64
286.463	53
286.732	-2
287	-115
287.268	-46
287.536	34
287.804	-45
288.072	-131
288.34	-67
288.608	73
288.876	-25
289.144	-117
289.412	-21
289.68	54
289.948	-33
290.215	-127
290.483	-81
290.751	98
291.019	88
291.287	-169
291.555	-120
291.823	27
292.091	-14
292.358	-58
292.626	-13
292.894	85
293.162	37
293.43	-102
293.697	-67
293.965	51
294.233	-27
294.501	-167
294.768	-59
295.036	81
295.304	34
295.572	-131
295.839	-98
296.107	104
296.375	10
296.642	-135
296.91	-120
297.178	38
297.445	170
297.713	102
297.98	-60
298.248	-18
298.516	-45
298.783	-119
299.051	-115
299.318	28
299.586	-21
299.853	-92
300.121	-97
300.388	46
300.656	-3
300.923	-144
301.191	-39
301.458	57
301.726	-7
301.993	-135
302.26	-72
302.528	63
302.795	9
303.063	-58
303.33	-45
303.597	45
303.865	30
304.132	-122
304.399	-120
304.667	-24
304.934	24
305.201	-91
305.469	-15
305.736	75
306.003	52
306.27	-53
306.538	-87
306.805	4
307.072	-28
307.339	-86
307.606	-40
307.874	164
308.141	82
308.408	-112
308.675	-98
308.942	-41
309.209	-79
309.477	-133
309.744	-102
310.011	29
310.278	56
310.545	-28
310.812	-45
311.079	145
311.346	201
311.613	67
311.88	-20
312.147	-52
312.414	-37
312.681	-111
312.948	-24
313.215	137
313.482	81
313.749	-95
314.016	-179
314.283	-47
314.55	45
314.817	-98
315.083	-110
315.35	-71
315.617	-123
315.884	-135
316.151	63
316.418	158
316.684	-18
316.951	-174
317.218	-110
317.485	14
317.752	-59
318.018	-134
318.285	-9
318.552	31
318.819	-48
319.085	-121
319.352	-47
319.619	49
319.885	-25
320.152	-187
320.419	-101
320.685	39
320.952	-35
321.219	-78
321.485	66
321.752	18
322.019	-26
322.285	33
322.552	-6
322.818	146
323.085	-16
323.351	-134
323.618	-32
323.884	46
324.151	-51
324.417	-37
324.684	-70
324.95	-59
325.217	-151
325.483	-177
325.75	-20
326.016	10
326.283	-23
326.549	-179
326.815	-74
327.082	97
327.348	13
327.615	-103
327.881	-35
328.147	103
328.414	133
328.68	22
328.946	-27
329.212	43
329.479	15
329.745	-116
330.011	-105
330.278	19
330.544	-38
330.81	-53
331.076	-40
331.342	-16
331.609	-26
331.875	-86
332.141	-93
332.407	36
332.673	8
332.94	-29
333.206	-43
333.472	50
333.738	71
334.004	-116
334.27	-21
334.536	12
334.802	-36
335.068	-94
335.334	4
335.6	28
335.866	-18
336.132	-156
336.398	-90
336.664	-14
336.93	-23
337.196	-77
337.462	-8
337.728	41
337.994	-33
338.26	-94
338.526	-47
338.792	-51
339.058	-45
339.324	-136
339.59	4
339.856	61
340.121	-46
340.387	-119
340.653	77
340.919	154
341.185	49
341.45	-79
341.716	22
341.982	109
342.248	-55
342.514	-92
342.779	-5
343.045	27
343.311	-16
343.576	-83
343.842	-29
344.108	128
344.374	19
344.639	-113
344.905	-89
345.171	61
345.436	-43
345.702	-84
345.967	72
346.233	85
346.499	26
346.764	-160
347.03	-67
347.295	-36
347.561	19
347.826	-49
348.092	-117
348.357	-11
348.623	-5
348.888	-107
349.154	-88
349.419	56
349.685	34
349.95	-57
350.216	-35
350.481	49
350.747	-47
351.012	-168
351.277	-92
351.543	52
351.808	-8
352.074	-167
352.339	-99
352.604	46
352.87	16
353.135	-93
353.4	-47
353.666	13
353.931	-1
354.196	-133
354.461	-121
354.727	48
354.992	13
355.257	-114
355.522	-19
355.788	6
356.053	80
356.318	-58
356.583	-82
356.848	117
357.113	236
357.379	-30
357.644	-50
357.909	132
358.174	151
358.439	-115
358.704	-39
358.969	92
359.234	102
359.499	-59
359.765	6
360.03	124
360.295	121
360.56	-52
360.825	16
361.09	203
361.355	40
361.62	4
361.885	49
362.15	24
362.415	45
362.679	-10
362.944	135
363.209	158
363.474	170
363.739	99
364.004	19
364.269	90
364.534	143
364.799	92
365.063	108
365.328	211
365.593	197
365.858	50
366.123	57
366.387	212
366.652	175
366.917	64
367.182	133
367.447	265
367.711	221
367.976	151
368.241	236
368.505	295
368.77	179
369.035	168
369.299	246
369.564	282
369.829	223
370.093	180
370.358	173
370.623	296
370.887	323
371.152	164
371.416	258
371.681	311
371.946	225
372.21	196
372.475	319
372.739	370
373.004	336
373.268	304
373.533	370
373.797	436
374.062	439
374.326	277
374.591	381
374.855	471
375.12	417
375.384	256
375.648	357
375.913	519
376.177	539
376.442	402
376.706	436
376.97	584
377.235	537
377.499	495
377.763	543
378.028	609
378.292	619
378.556	526
378.821	477
379.085	565
379.349	532
379.614	469
379.878	605
380.142	796
380.406	711
380.671	713
380.935	867
381.199	975
381.463	861
381.727	803
381.991	783
382.256	863
382.52	833
382.784	855
383.048	991
383.312	930
383.576	929
383.84	844
384.104	908
384.369	1020
384.633	913
384.897	836
385.161	1002
385.425	1138
385.689	1062
385.953	1028
386.217	1041
386.481	1144
386.745	1199
387.009	1152
387.273	1103
387.537	1176
387.801	1247
388.064	1190
388.328	1259
388.592	1363
388.856	1333
389.12	1279
389.384	1367
389.648	1409
389.912	1447
390.176	1488
390.439	1665
390.703	1501
390.967	1485
391.231	1421
391.495	1463
391.758	1556
392.022	1604
392.286	1474
392.55	1495
392.813	1631
393.077	1700
393.341	1646
393.605	1713
393.868	1715
394.132	1777
394.396	1721
394.659	1809
394.923	1818
395.187	1772
395.45	1766
395.714	1826
395.978	1877
396.241	1888
396.505	1820
396.768	1908
397.032	1985
397.295	2016
397.559	1960
397.823	1932
398.086	2086
398.35	2061
398.613	1961
398.877	2085
399.14	2228
399.404	2248
399.667	2161
399.931	2103
400.194	2196
400.457	2205
400.721	2259
400.984	2345
401.248	2318
401.511	2305
401.775	2204
402.038	2221
402.301	2483
402.565	2469
402.828	2306
403.091	2376
403.355	2490
403.618	2457
403.881	2468
404.145	2550
404.408	2604
404.671	2530
404.934	2589
405.198	2648
405.461	2645
405.724	2719
405.987	2725
406.251	2786
406.514	2891
406.777	2764
407.04	2671
407.303	2686
407.567	2870
407.83	2893
408.093	2717
408.356	2846
408.619	2956
408.882	3034
409.145	2959
409.408	2924
409.672	3031
409.935	2937
410.198	2819
410.461	2919
410.724	3164
410.987	3109
411.25	2936
411.513	3061
411.776	3119
412.039	3019
412.302	2991
412.565	3067
412.828	3063
413.091	3046
413.354	2989
413.617	3028
413.879	3067
414.142	3068
414.405	2936
414.668	2967
414.931	3092
415.194	3079
415.457	2954
415.72	3044
415.983	3056
416.245	3079
416.508	2970
416.771	2934
417.034	3052
417.297	3031
417.559	2989
417.822	2973
418.085	3087
418.348	3058
418.61	2923
418.873	2931
419.136	3002
419.399	2983
419.661	3017
419.924	2980
420.187	3063
420.449	3072
420.712	3022
420.975	3034
421.237	3112
421.5	3116
421.762	3174
422.025	3167
422.288	3278
422.55	3114
422.813	3034
423.075	3123
423.338	3236
423.601	3274
423.863	3208
424.126	3272
424.388	3356
424.651	3316
424.913	3303
425.176	3344
425.438	3360
425.701	3371
425.963	3279
426.225	3305
426.488	3334
426.75	3348
427.013	3304
427.275	3375
427.538	3424
427.8	3443
428.062	3368
428.325	3415
428.587	3469
428.849	3423
429.112	3470
429.374	3456
429.636	3471
429.899	3527
430.161	3419
430.423	3517
430.686	3695
430.948	3647
431.21	3490
431.472	3448
431.735	3592
431.997	3641
432.259	3577
432.521	3442
432.783	3599
433.046	3590
433.308	3461
433.57	3539
433.832	3793
434.094	3556
434.356	3438
434.618	3555
434.881	3684
435.143	3742
435.405	3689
435.667	3633
435.929	3709
436.191	3736
436.453	3641
436.715	3713
436.977	3897
437.239	3943
437.501	3797
437.763	3786
438.025	3899
438.287	3873
438.549	3825
438.811	3806
439.073	3810
439.335	3815
439.597	3746
439.859	3777
440.121	3909
440.383	3818
440.645	3782
440.907	3849
441.168	3896
441.43	3879
441.692	3880
441.954	3927
442.216	3955
442.478	3902
442.74	3780
443.001	3901
443.263	4097
443.525	3909
443.787	3789
444.048	3775
444.31	3841
444.572	3955
444.834	3875
445.095	3883
445.357	4085
445.619	3875
445.881	3769
446.142	3857
446.404	3875
446.666	3927
446.927	3898
447.189	3974
447.451	4042
447.712	3895
447.974	3739
448.235	3787
448.497	3909
448.759	3837
449.02	3836
449.282	3784
449.543	3916
449.805	4007
450.066	3740
450.328	3840
450.59	4053
450.851	3895
451.113	3781
451.374	3724
451.636	3924
451.897	3995
452.158	3925
452.42	4024
452.681	4081
452.943	3832
453.204	3851
453.466	3871
453.727	3874
453.988	3933
454.25	3838
454.511	3867
454.773	3926
455.034	4038
455.295	3796
455.557	3935
455.818	3992
456.079	3963
456.341	4073
456.602	4116
456.863	4136
457.124	3989
457.386	3821
457.647	3835
457.908	3924
458.169	4083
458.431	3953
458.692	3993
458.953	4041
459.214	4042
459.476	4172
459.737	4300
459.998	4305
460.259	4133
460.52	4101
460.781	4239
461.043	4399
461.304	4287
461.565	4081
461.826	4148
462.087	4337
462.348	4488
462.609	4441
462.87	4410
463.131	4353
463.392	4535
463.653	4532
463.914	4541
464.175	4526
464.436	4558
464.697	4571
464.958	4437
465.219	4540
465.48	4654
465.741	4681
466.002	4518
466.263	4719
466.524	4724
466.785	4597
467.046	4685
467.307	4886
467.568	4927
467.829	4903
468.089	4885
468.35	4967
468.611	4893
468.872	4824
469.133	5037
469.394	5220
469.655	5287
469.915	5141
470.176	4995
470.437	5144
470.698	5260
470.958	5251
471.219	5242
471.48	5357
471.741	5510
472.001	5443
472.262	5389
472.523	5600
472.784	5803
473.044	5703
473.305	5726
473.566	5733
473.826	5835
474.087	5796
474.348	5896
474.608	6067
474.869	6028
475.129	5923
475.39	6033
475.651	6174
475.911	6335
476.172	6188
476.432	6336
476.693	6582
476.953	6419
477.214	6428
477.475	6519
477.735	6512
477.996	6641
478.256	6563
478.517	6616
478.777	6782
479.038	6921
479.298	6983
479.558	7003
479.819	7135
480.079	7133
480.34	7211
480.6	7152
480.861	7239
481.121	7252
481.381	7223
481.642	7352
481.902	7446
482.162	7456
482.423	7431
482.683	7511
482.943	7624
483.204	7663
483.464	7633
483.724	7636
483.985	7750
484.245	7817
484.505	7789
484.765	7906
485.026	7991
485.286	8061
485.546	8060
485.806	8058
486.067	8048
486.327	8019
486.587	8010
486.847	8114
487.107	8300
487.368	8371
487.628	8278
487.888	8316
488.148	8432
488.408	8291
488.668	8341
488.928	8377
489.188	8400
489.449	8488
489.709	8410
489.969	8431
490.229	8545
490.489	8561
490.749	8500
491.009	8448
491.269	8579
491.529	8612
491.789	8565
492.049	8647
492.309	8739
492.569	8632
492.829	8651
493.089	8633
493.349	8794
493.609	8716
493.869	8580
494.129	8694
494.389	8788
494.648	8689
494.908	8661
495.168	8756
495.428	8832
495.688	8823
495.948	8698
496.208	8694
496.467	8779
496.727	8822
496.987	8832
497.247	8803
497.507	8900
497.767	8926
498.026	8722
498.286	8821
498.546	8989
498.806	8896
499.065	8934
499.325	8856
499.585	8895
499.845	8926
500.104	8846
500.364	8939
500.624	8940
500.883	8874
501.143	8903
501.403	8928
501.662	8994
501.922	8938
502.182	8798
502.441	8789
502.701	8884
502.96	8949
503.22	8873
503.48	8853
503.739	8903
503.999	8899
504.258	8856
504.518	8901
504.777	8920
505.037	8924
505.296	8911
505.556	8904
505.815	9004
506.075	9079
506.334	9017
506.594	8817
506.853	8824
507.113	8842
507.372	8712
507.632	8856
507.891	8956
508.151	8965
508.41	8789
508.669	8794
508.929	8926
509.188	8856
509.447	8833
509.707	8789
509.966	8879
510.226	8925
510.485	8861
510.744	8862
511.004	8886
511.263	8799
511.522	8728
511.781	8793
512.041	8965
512.3	8940
512.559	8920
512.818	8942
513.078	8924
513.337	8926
513.596	8783
513.855	8819
514.115	8925
514.374	8897
514.633	8855
514.892	8866
515.151	8987
515.41	8981
515.67	8892
515.929	8887
516.188	9050
516.447	8966
516.706	8807
516.965	8869
517.224	8932
517.483	8962
517.743	8875
518.002	8934
518.261	9029
518.52	8992
518.779	8832
519.038	8861
519.297	8911
519.556	8930
519.815	8813
520.074	8839
520.333	8956
520.592	8920
520.851	8781
521.11	8946
521.369	9105
521.628	8898
521.887	8854
522.145	8977
522.404	8929
522.663	8907
522.922	8804
523.181	8854
523.44	8984
523.699	8975
523.958	8827
524.217	8823
524.475	8870
524.734	8870
524.993	8828
525.252	8900
525.511	8908
525.769	8901
526.028	8831
526.287	8868
526.546	8911
526.805	8842
527.063	8760
527.322	8805
527.581	8871
527.839	8918
528.098	8821
528.357	8807
528.616	8874
528.874	8834
529.133	8744
529.392	8916
529.65	8882
529.909	8853
530.168	8737
530.426	8782
530.685	8931
530.943	8843
531.202	8736
531.461	8793
531.719	8887
531.978	8801
532.236	8686
532.495	8725
532.753	8824
533.012	8764
533.271	8732
533.529	8701
533.788	8764
534.046	8685
534.305	8635
534.563	8865
534.822	8941
535.08	8829
535.338	8762
535.597	8811
535.855	8869
536.114	8791
536.372	8727
536.631	8783
536.889	8855
537.147	8790
537.406	8626
537.664	8795
537.923	8880
538.181	8876
538.439	8751
538.698	8884
538.956	8857
539.214	8836
539.473	8795
539.731	8869
539.989	9038
540.248	8955
540.506	8860
540.764	8928
541.022	9014
541.281	9021
541.539	8972
541.797	8946
542.055	9071
542.314	9165
542.572	9110
542.83	9019
543.088	9183
543.346	9092
543.604	9008
543.863	9119
544.121	9292
544.379	9206
544.637	9100
544.895	9270
545.153	9394
545.411	9206
545.67	9125
545.928	9276
546.186	9398
546.444	9415
546.702	9358
546.96	9466
547.218	9524
547.476	9420
547.734	9412
547.992	9473
548.25	9643
548.508	9610
548.766	9593
549.024	9604
549.282	9666
549.54	9714
549.798	9671
550.056	9699
550.314	9931
550.572	9849
550.83	9743
551.088	9864
551.346	9989
551.603	10002
551.861	9927
552.119	9999
552.377	10035
552.635	10006
552.893	9926
553.151	9973
553.409	10133
553.666	10174
553.924	10129
554.182	10128
554.44	10279
554.698	10375
554.955	10279
555.213	10236
555.471	10472
555.729	10419
555.986	10257
556.244	10348
556.502	10606
556.76	10460
557.017	10389
557.275	10443
557.533	10649
557.79	10668
558.048	10475
558.306	10575
558.563	10650
558.821	10618
559.079	10623
559.336	10632
559.594	10701
559.852	10694
560.109	10552
560.367	10657
560.624	10770
560.882	10740
561.14	10706
561.397	10821
561.655	10738
561.912	10729
562.17	10687
562.427	10776
562.685	10876
562.942	10846
563.2	10743
563.457	10766
563.715	10820
563.972	10882
564.23	10669
564.487	10672
564.745	10780
565.002	10802
565.26	10759
565.517	10759
565.774	10828
566.032	10851
566.289	10740
566.547	10774
566.804	10836
567.061	10789
567.319	10677
567.576	10804
567.833	10937
568.091	10896
568.348	10754
568.605	10755
568.863	10801
569.12	10765
569.377	10707
569.635	10684
569.892	10657
570.149	10627
570.406	10541
570.664	10511
570.921	10618
571.178	10549
571.435	10527
571.693	10492
571.95	10547
572.207	10440
572.464	10356
572.721	10474
572.979	10522
573.236	10458
573.493	10292
573.75	10348
574.007	10431
574.264	10285
574.521	10175
574.779	10177
575.036	10202
575.293	10156
575.55	10066
575.807	10011
576.064	10101
576.321	10069
576.578	9898
576.835	9876
577.092	10037
577.349	9873
577.606	9644
577.863	9737
578.12	9791
578.377	9778
578.634	9481
578.891	9440
579.148	9550
579.405	9483
579.662	9335
579.919	9380
580.176	9411
580.433	9364
580.69	9246
580.947	9225
581.204	9244
581.461	9116
581.717	8939
581.974	9010
582.231	9058
582.488	8923
582.745	8677
583.002	8655
583.259	8824
583.515	8752
583.772	8602
584.029	8604
584.286	8683
584.543	8567
584.799	8462
585.056	8445
585.313	8526
585.57	8496
585.826	8330
586.083	8401
586.34	8490
586.597	8301
586.853	8086
587.11	8067
587.367	8144
587.623	8164
587.88	8048
588.137	7919
588.393	8003
588.65	7889
588.907	7747
589.163	7793
589.42	7808
589.677	7796
589.933	7668
590.19	7738
590.446	7823
590.703	7787
590.96	7525
591.216	7447
591.473	7476
591.729	7488
591.986	7447
592.242	7502
592.499	7654
592.755	7424
593.012	7297
593.268	7327
593.525	7351
593.781	7389
594.038	7260
594.294	7290
594.551	7314
594.807	7310
595.064	7250
595.32	7188
595.576	7263
595.833	7295
596.089	7164
596.346	7291
596.602	7296
596.858	7319
597.115	7196
597.371	7200
597.628	7192
597.884	7149
598.14	7013
598.397	7174
598.653	7281
598.909	7160
599.166	7022
599.422	7061
599.678	7053
599.934	7060
600.191	6943
600.447	6984
600.703	7038
600.959	6969
601.216	6766
601.472	6878
601.728	7040
601.984	6934
602.241	6817
602.497	6891
602.753	7029
603.009	6938
603.265	6839
603.521	6966
603.778	7022
604.034	6880
604.29	6808
604.546	6902
604.802	6992
605.058	6940
605.314	6821
605.571	6806
605.827	6821
606.083	6830
606.339	6745
606.595	6847
606.851	6954
607.107	6965
607.363	6771
607.619	6753
607.875	6949
608.131	6935
608.387	6690
608.643	6721
608.899	6752
609.155	6743
609.411	6731
609.667	6744
609.923	6785
610.179	6759
610.435	6560
610.691	6606
610.947	6725
611.203	6661
611.459	6587
611.714	6650
611.97	6772
612.226	6718
612.482	6532
612.738	6632
612.994	6848
613.25	6665
613.505	6564
613.761	6570
614.017	6599
614.273	6589
614.529	6510
614.785	6424
615.04	6593
615.296	6548
615.552	6476
615.808	6503
616.063	6545
616.319	6523
616.575	6415
616.831	6520
617.086	6673
617.342	6596
617.598	6404
617.854	6407
618.109	6431
618.365	6336
618.621	6266
618.876	6384
619.132	6465
619.388	6415
619.643	6225
619.899	6315
620.155	6395
620.41	6357
620.666	6190
620.921	6210
621.177	6355
621.433	6370
621.688	6228
621.944	6138
622.199	6239
622.455	6249
622.71	6109
622.966	6159
623.221	6150
623.477	6135
623.732	6124
623.988	6022
624.243	6140
624.499	6161
624.754	5965
625.01	5966
625.265	6069
625.521	6107
625.776	5974
626.032	5971
626.287	6023
626.543	5972
626.798	5886
627.053	5893
627.309	5943
627.564	5833
627.82	5801
628.075	5884
628.33	5826
628.586	5740
628.841	5597
629.096	5723
629.352	5767
629.607	5661
629.862	5642
630.118	5716
630.373	5648
630.628	5640
630.884	5510
631.139	5575
631.394	5730
631.649	5683
631.905	5504
632.16	5588
632.415	5716
632.67	5568
632.926	5423
633.181	5349
633.436	5491
633.691	5392
633.946	5253
634.202	5319
634.457	5407
634.712	5350
634.967	5254
635.222	5234
635.477	5335
635.733	5281
635.988	5199
636.243	5190
636.498	5331
636.753	5283
637.008	5077
637.263	5192
637.518	5244
637.773	5158
638.028	5106
638.283	5127
638.539	5245
638.794	5182
639.049	4978
639.304	4939
639.559	5029
639.814	5073
640.069	4958
640.324	4907
640.579	4991
640.834	4985
641.089	4852
641.344	4932
641.598	5093
641.853	4950
642.108	4785
642.363	4796
642.618	4954
642.873	4794
643.128	4694
643.383	4705
643.638	4786
643.893	4853
644.148	4783
644.402	4691
644.657	4725
644.912	4691
645.167	4690
645.422	4702
645.677	4695
645.931	4736
646.186	4714
646.441	4630
646.696	4546
646.951	4575
647.205	4570
647.46	4553
647.715	4583
647.97	4747
648.224	4799
648.479	4619
648.734	4715
648.989	4651
649.243	4552
649.498	4475
649.753	4511
650.007	4566
650.262	4455
650.517	4483
650.771	4476
651.026	4411
651.281	4303
651.535	4406
651.79	4438
652.045	4428
652.299	4337
652.554	4358
652.809	4479
653.063	4620
653.318	4463
653.572	4320
653.827	4443
654.081	4373
654.336	4258
654.591	4271
654.845	4369
655.1	4312
655.354	4233
655.609	4326
655.863	4403
656.118	4356
656.372	4237
656.627	4243
656.881	4306
657.136	4268
657.39	4145
657.645	4254
657.899	4432
658.153	4284
658.408	4164
658.662	4239
658.917	4304
659.171	4196
659.426	4104
659.68	4128
659.934	4278
660.189	4241
660.443	4119
660.697	4225
660.952	4361
661.206	4260
661.46	4073
661.715	4129
661.969	4214
662.223	4252
662.478	4151
662.732	4177
662.986	4238
663.241	4235
663.495	4113
663.749	4142
664.003	4306
664.258	4234
664.512	4144
664.766	4177
665.02	4247
665.275	4309
665.529	4135
665.783	4142
666.037	4198
666.291	4192
666.546	4128
666.8	4189
667.054	4203
667.308	4241
667.562	4053
667.816	4123
668.071	4231
668.325	4171
668.579	4199
668.833	4245
669.087	4359
669.341	4283
669.595	4200
669.849	4244
670.103	4282
670.357	4268
670.612	4232
670.866	4159
671.12	4299
671.374	4269
671.628	4247
671.882	4256
672.136	4323
672.39	4336
672.644	4190
672.898	4335
673.152	4477
673.406	4394
673.66	4319
673.914	4364
674.168	4421
674.422	4387
674.675	4298
674.929	4363
675.183	4483
675.437	4391
675.691	4331
675.945	4436
676.199	4577
676.453	4441
676.707	4301
676.961	4348
677.214	4454
677.468	4476
677.722	4489
677.976	4428
678.23	4479
678.484	4509
678.737	4375
678.991	4426
679.245	4507
679.499	4496
679.753	4452
680.006	4481
680.26	4615
680.514	4588
680.768	4427
681.021	4514
681.275	4592
681.529	4582
681.783	4546
682.036	4576
682.29	4552
682.544	4537
682.797	4499
683.051	4531
683.305	4625
683.559	4631
683.812	4628
684.066	4643
684.32	4702
684.573	4652
684.827	4683
685.08	4713
685.334	4789
685.588	4685
685.841	4588
686.095	4762
686.348	4765
686.602	4748
686.856	4725
687.109	4684
687.363	4751
687.616	4713
687.87	4547
688.123	4609
688.377	4761
688.63	4777
688.884	4764
689.137	4819
689.391	4867
689.644	4705
689.898	4610
690.151	4686
690.405	4819
690.658	4774
690.912	4695
691.165	4705
691.419	4843
691.672	4876
691.926	4774
692.179	4780
692.432	4890
692.686	4810
692.939	4690
693.193	4736
693.446	4906
693.699	4907
693.953	4899
694.206	4842
694.459	4934
694.713	4962
694.966	4808
695.219	4772
695.473	4891
695.726	4828
695.979	4737
696.233	4841
696.486	4917
696.739	4877
696.992	4798
697.246	4960
697.499	5044
697.752	4841
698.006	4812
698.259	4926
698.512	4891
698.765	4851
699.018	4821
699.272	4896
699.525	4896
699.778	4831
700.031	4734
700.284	4769
700.538	4923
700.791	4879
701.044	4817
701.297	4855
701.55	4879
701.803	4813
702.056	4733
702.31	4819
702.563	4894
702.816	4826
703.069	4689
703.322	4772
703.575	4865
703.828	4895
704.081	4791
704.334	4788
704.587	4812
704.84	4771
705.093	4737
705.346	4869
705.599	4833
705.853	4807
706.106	4839
706.359	5101
706.612	4844
706.865	4889
707.118	4736
707.37	4750
707.623	4864
707.876	4794
708.129	4765
708.382	4895
708.635	4950
708.888	4764
709.141	4622
709.394	4756
709.647	4867
709.9	4720
710.153	4606
710.406	4746
710.658	4819
710.911	4764
711.164	4588
711.417	4577
711.67	4622
711.923	4676
712.176	4575
712.428	4639
712.681	4708
712.934	4688
713.187	4596
713.44	4528
713.692	4648
713.945	4594
714.198	4517
714.451	4512
714.704	4667
714.956	4694
715.209	4703
715.462	4661
715.715	4621
715.967	4606
716.22	4445
716.473	4466
716.725	4624
716.978	4577
717.231	4545
717.484	4572
717.736	4534
717.989	4426
718.242	4338
718.494	4465
718.747	4589
718.999	4503
719.252	4480
719.505	4510
719.757	4487
720.01	4427
720.263	4360
720.515	4377
720.768	4469
721.02	4453
721.273	4321
721.525	4284
721.778	4381
722.031	4472
722.283	4334
722.536	4312
722.788	4368
723.041	4283
723.293	4167
723.546	4157
723.798	4312
724.051	4349
724.303	4312
724.556	4355
724.808	4412
725.061	4346
725.313	4221
725.566	4200
725.818	4196
726.071	4164
726.323	4039
726.575	4098
726.828	4223
727.08	4245
727.333	4149
727.585	4150
727.837	4199
728.09	4184
728.342	4009
728.595	4107
728.847	4268
729.099	4019
729.352	4000
729.604	4024
729.856	4077
730.109	4059
730.361	3952
730.613	4021
730.866	4122
731.118	4005
731.37	3932
731.622	3957
731.875	3977
732.127	4012
732.379	4005
732.631	4015
732.884	3991
733.136	3915
733.388	3791
733.64	3822
733.893	3968
734.145	3908
734.397	3761
734.649	3767
734.901	3883
735.154	3747
735.406	3653
735.658	3750
735.91	3895
736.162	3815
736.414	3651
736.667	3789
736.919	3766
737.171	3644
737.423	3657
737.675	3718
737.927	3803
738.179	3702
738.431	3657
738.684	3595
738.936	3662
739.188	3724
739.44	3502
739.692	3518
739.944	3545
740.196	3566
740.448	3514
740.7	3531
740.952	3601
741.204	3623
741.456	3512
741.708	3539
741.96	3537
742.212	3566
742.464	3536
742.716	3412
742.968	3530
743.22	3445
743.472	3365
743.724	3443
743.976	3572
744.228	3546
744.48	3332
744.732	3401
744.983	3557
745.235	3494
745.487	3406
745.739	3459
745.991	3467
746.243	3515
746.495	3350
746.747	3355
746.999	3453
747.25	3437
747.502	3397
747.754	3471
748.006	3448
748.258	3548
748.51	3518
748.761	3353
749.013	3445
749.265	3491
749.517	3439
749.768	3471
750.02	3485
750.272	3417
750.524	3229
750.776	3196
751.027	3391
751.279	3408
751.531	3177
751.782	3262
752.034	3356
752.286	3221
752.538	3097
752.789	3214
753.041	3301
753.293	3244
753.544	3164
753.796	3200
754.048	3265
754.299	3248
754.551	3201
754.803	3125
755.054	3167
755.306	3219
755.558	3139
755.809	3132
756.061	3273
756.312	3144
756.564	3145
756.816	3151
757.067	3115
757.319	3117
757.57	3067
757.822	3127
758.073	3200
758.325	3140
758.577	3024
758.828	3023
759.08	3219
759.331	3209
759.583	2987
759.834	3061
760.086	3020
760.337	3035
760.589	2964
760.84	2999
761.092	3071
761.343	3004
761.595	2886
761.846	3001
762.097	3010
762.349	2985
762.6	2836
762.852	2957
763.103	3102
763.355	2912
763.606	2851
763.857	2991
764.109	3113
764.36	3027
764.612	2908
764.863	2973
765.114	3007
765.366	2867
765.617	2776
765.868	2824
766.12	2956
766.371	2938
766.622	2734
766.874	2834
767.125	2945
767.376	2793
767.628	2758
767.879	2823
768.13	2899
768.381	2901
768.633	2842
768.884	2863
769.135	2911
769.386	2824
769.638	2770
769.889	2770
770.14	2820
770.391	2747
770.643	2668
770.894	2642
771.145	2766
771.396	2720
771.647	2635
771.899	2760
772.15	2796
772.401	2751
772.652	2589
772.903	2643
773.154	2981
773.406	3171
773.657	2620
773.908	2637
774.159	2710
774.41	2699
774.661	2576
774.912	2620
775.163	2794
775.414	2790
775.666	2521
775.917	2539
776.168	2622
776.419	2601
776.67	2488
776.921	2487
777.172	2583
777.423	2617
777.674	2631
777.925	2627
778.176	2549
778.427	2527
778.678	2459
778.929	2486
779.18	2579
779.431	2492
779.682	2476
779.933	2528
780.184	2561
780.435	2531
780.686	2493
780.937	2518
781.188	2542
781.439	2628
781.69	2539
781.941	2501
782.191	2479
782.442	2427
782.693	2377
782.944	2368
783.195	2460
783.446	2452
783.697	2463
783.948	2372
784.199	2420
784.449	2372
784.7	2358
784.951	2407
785.202	2520
785.453	2458
785.704	2279
785.954	2259
786.205	2341
786.456	2306
786.707	2219
786.958	2282
787.208	2387
787.459	2328
787.71	2325
787.961	2322
788.211	2346
788.462	2315
788.713	2270
788.964	2283
789.214	2364
789.465	2350
789.716	2317
789.967	2293
790.217	2273
790.468	2263
790.719	2184
790.969	2192
791.22	2248
791.471	2312
791.721	2342
791.972	2227
792.223	2288
792.473	2224
792.724	2179
792.975	2175
793.225	2264
793.476	2216
793.726	2137
793.977	2226
794.228	2364
794.478	2247
794.729	2152
794.979	2256
795.23	2292
795.481	2212
795.731	2119
795.982	2163
796.232	2131
796.483	2081
796.733	2050
796.984	2123
797.234	2190
797.485	2195
797.735	2017
797.986	2058
798.236	2175
798.487	2111
798.737	2079
798.988	2157
799.238	2223
799.489	2127
799.739	2018
799.99	2079
800.24	2161
800.491	2175
800.741	2061
800.991	2001
801.242	2054
801.492	2074
801.743	2029
801.993	2270
802.244	2474
802.494	2078
802.744	2020
802.995	2043
803.245	2026
803.495	2032
803.746	1982
803.996	2077
804.246	2038
804.497	2037
804.747	1908
804.997	1975
805.248	2018
805.498	1958
805.748	1920
805.999	1868
806.249	1925
806.499	1935
806.75	1839
807	1900
807.25	1974
807.5	1902
807.751	1934
808.001	1988
808.251	2007
808.501	2050
808.752	2011
809.002	1963
809.252	1960
809.502	1876
809.752	1873
810.003	1812
810.253	1899
810.503	1932
810.753	1938
811.003	1940
811.254	1985
811.504	1901
811.754	1855
812.004	1871
812.254	2082
812.504	1946
812.754	1863
813.005	1912
813.255	1993
813.505	1912
813.755	1787
814.005	1881
814.255	1904
814.505	1855
814.755	1741
815.005	1751
815.255	1855
815.505	1838
815.756	1874
816.006	1875
816.256	1819
816.506	1749
816.756	1704
817.006	1749
817.256	1841
817.506	1817
817.756	1751
818.006	1753
818.256	1811
818.506	1804
818.756	1663
819.006	1747
819.256	1806
819.506	1748
819.756	1701
820.006	1772
820.255	1860
820.505	1814
820.755	1655
821.005	1728
821.255	1849
821.505	1763
821.755	1674
822.005	1777
822.255	1855
822.505	1765
822.755	1767
823.004	1638
823.254	1692
823.504	1745
823.754	1733
824.004	1679
824.254	1763
824.504	1730
824.753	1775
825.003	1768
825.253	1797
825.503	1664
825.753	1626
826.002	1727
826.252	1920
826.502	1722
826.752	1617
827.002	1643
827.251	1727
827.501	1681
827.751	1600
828.001	1626
828.25	1719
828.5	1560
828.75	1527
829	1647
829.249	1753
829.499	1615
829.749	1578
829.998	1663
830.248	1676
830.498	1565
830.748	1559
830.997	1609
831.247	1682
831.497	1679
831.746	1573
831.996	1655
832.246	1767
832.495	1781
832.745	1519
832.994	1564
833.244	1706
833.494	1603
833.743	1504
833.993	1563
834.243	1643
834.492	1631
834.742	1588
834.991	1549
835.241	1716
835.49	1560
835.74	1435
835.99	1502
836.239	1635
836.489	1665
836.738	1548
836.988	1446
837.237	1556
837.487	1624
837.736	1512
837.986	1493
838.235	1558
838.485	1552
838.734	1514
838.984	1557
839.233	1514
839.483	1433
839.732	1393
839.982	1473
840.231	1539
840.481	1539
840.73	1422
840.979	1489
841.229	1510
841.478	1465
841.728	1345
841.977	1337
842.227	1402
842.476	1349
842.725	1334
842.975	1404
843.224	1518
843.474	1557
843.723	1437
843.972	1427
844.222	1453
844.471	1503
844.72	1403
844.97	1367
845.219	1459
845.468	1462
845.718	1425
845.967	1433
846.216	1464
846.466	1505
846.715	1347
846.964	1336
847.214	1350
847.463	1312
847.712	1346
847.961	1309
848.211	1384
848.46	1390
848.709	1325
848.958	1298
849.208	1392
849.457	1373
849.706	1344
849.955	1331
850.205	1325
850.454	1438
850.703	1459
850.952	1399
851.201	1428
851.451	1375
851.7	1354
851.949	1224
852.198	1345
852.447	1321
852.696	1208
852.946	1268
853.195	1404
853.444	1393
853.693	1197
853.942	1211
854.191	1332
854.44	1352
854.689	1262
854.939	1213
855.188	1200
855.437	1221
855.686	1201
855.935	1250
856.184	1319
856.433	1328
856.682	1251
856.931	1263
857.18	1297
857.429	1226
857.678	1184
857.927	1197
858.176	1211
858.425	1185
858.674	1107
858.924	1180
859.173	1212
859.422	1212
859.671	1112
859.92	1175
860.169	1195
860.417	1256
860.666	1189
860.915	1146
861.164	1185
861.413	1133
861.662	1038
861.911	1120
862.16	1266
862.409	1210
862.658	1028
862.907	1083
863.156	1198
863.405	1197
863.654	1097
863.903	1064
864.151	1135
864.4	1192
864.649	1135
864.898	1157
865.147	1192
865.396	1201
865.645	1055
865.894	1094
866.142	1237
866.391	1120
866.64	1034
866.889	1140
867.138	1284
867.387	1166
867.635	1071
867.884	1100
868.133	1192
868.382	1116
868.631	1003
868.879	1012
869.128	1116
869.377	1118
869.626	1043
869.874	1029
870.123	1140
870.372	1080
870.621	973
870.869	1019
871.118	1110
871.367	1090
871.616	982
871.864	1081
872.113	1115
872.362	1061
872.61	1018
872.859	1059
873.108	1128
873.357	1025
873.605	952
873.854	977
874.103	992
874.351	971
874.6	969
874.848	983
875.097	1018
875.346	1020
875.594	916
875.843	1027
876.092	1152
876.34	1041
876.589	950
876.837	855
877.086	963
877.335	1039
877.583	970
877.832	1010
878.08	1115
878.329	1010
878.578	915
878.826	920
879.075	1019
879.323	1026
879.572	954
879.82	1081
880.069	1013
880.317	988
880.566	890
880.814	958
881.063	1066
881.311	994
881.56	993
881.808	907
882.057	980
882.305	958
882.554	960
882.802	867
883.051	918
883.299	939
883.548	904
883.796	972
884.045	965
884.293	901
884.541	789
884.79	772
885.038	867
885.287	884
885.535	891
885.783	917
886.032	900
886.28	847
886.529	801
886.777	858
887.025	993
887.274	873
887.522	819
887.77	837
888.019	869
888.267	813
888.516	744
888.764	807
889.012	875
889.261	878
889.509	770
889.757	795
890.005	845
890.254	797
890.502	804
890.75	1012
890.999	987
891.247	890
891.495	854
891.743	824
891.992	947
892.24	851
892.488	753
892.737	769
892.985	847
893.233	839
893.481	762
893.729	740
893.978	920
894.226	920
894.474	774
894.722	779
894.97	791
895.219	787
895.467	813
895.715	833
895.963	799
896.211	766
896.46	683
896.708	766
896.956	861
897.204	931
897.452	823
897.7	762
897.948	844
898.197	776
898.445	723
898.693	732
898.941	802
899.189	810
899.437	760
899.685	843
899.933	765
900.181	745
900.43	699
900.678	698
900.926	763
901.174	739
901.422	704
901.67	703
901.918	780
902.166	735
902.414	605
902.662	669
902.91	794
903.158	764
903.406	685
903.654	700
903.902	715
904.15	693
904.398	613
904.646	691
904.894	772
905.142	775
905.39	720
905.638	652
905.886	687
906.134	696
906.382	691
906.63	658
906.878	745
907.126	705
907.374	649
907.622	656
907.869	770
908.117	733
908.365	657
908.613	646
908.861	656
909.109	614
909.357	581
909.605	660
909.853	708
910.1	632
910.348	495
910.596	556
910.844	713
911.092	760
911.34	628
911.588	652
911.835	707
912.083	677
912.331	656
912.579	691
912.827	847
913.075	704
913.322	585
913.57	594
913.818	732
914.066	661
914.313	576
914.561	616
914.809	645
915.057	610
915.305	613
915.552	611
915.8	703
916.048	598
916.296	528
916.543	629
916.791	716
917.039	633
917.286	515
917.534	525
917.782	665
918.03	584
918.277	450
918.525	473
918.773	589
919.02	567
919.268	509
919.516	548
919.763	553
920.011	560
920.259	478
920.506	549
920.754	647
921.002	645
921.249	610
921.497	568
921.745	607
921.992	607
922.24	456
922.487	568
922.735	743
922.983	648
923.23	546
923.478	499
923.725	575
923.973	574
924.221	564
924.468	624
924.716	580
924.963	549
925.211	487
925.458	554
925.706	662
925.953	691
926.201	478
926.448	469
926.696	554
926.944	527
927.191	478
927.439	496
927.686	535
927.934	549
928.181	435
928.429	435
928.676	515
928.923	432
929.171	381
929.418	542
929.666	618
929.913	598
930.161	402
930.408	422
930.656	509
930.903	535
931.151	404
931.398	458
931.645	577
931.893	476
932.14	438
932.388	456
932.635	606
932.882	644
933.13	503
933.377	427
933.625	527
933.872	441
934.119	372
934.367	427
934.614	423
934.861	409
935.109	424
935.356	467
935.603	529
935.851	441
936.098	364
936.345	476
936.593	504
936.84	443
937.087	321
937.335	383
937.582	473
937.829	480
938.077	419
938.324	417
938.571	501
938.818	417
939.066	375
939.313	363
939.56	481
939.807	483
940.055	336
940.302	392
940.549	553
940.796	440
941.044	390
941.291	429
941.538	580
941.785	452
942.033	391
942.28	455
942.527	488
942.774	463
943.021	317
943.269	360
943.516	471
943.763	477
944.01	395
944.257	449
944.504	506
944.752	478
944.999	423
945.246	363
945.493	444
945.74	423
945.987	339
946.234	403
946.482	493
946.729	402
946.976	338
947.223	359
947.47	509
947.717	456
947.964	468
948.211	434
948.458	491
948.705	416
948.952	320
949.2	400
949.447	526
949.694	503
949.941	347
950.188	329
950.435	351
950.682	387
950.929	278
951.176	331
951.423	484
951.67	447
951.917	402
952.164	400
952.411	454
952.658	485
952.905	344
953.152	298
953.399	413
953.646	419
953.893	292
954.14	316
954.387	369
954.634	355
954.881	291
955.128	357
955.375	371
955.622	367
955.869	358
956.115	335
956.362	419
956.609	383
956.856	307
957.103	301
957.35	413
957.597	434
957.844	347
958.091	316
958.338	419
958.585	375
958.831	205
959.078	264
959.325	417
959.572	305
959.819	219
960.066	186
960.313	334
960.559	318
960.806	197
961.053	243
961.3	388
961.547	398
961.794	212
962.04	376
962.287	414
962.534	277
962.781	235
963.028	331
963.274	400
963.521	318
963.768	249
964.015	285
964.262	428
964.508	281
964.755	185
965.002	243
965.249	283
965.495	222
965.742	191
965.989	236
966.236	340
966.482	244
966.729	176
966.976	190
967.222	272
967.469	268
967.716	199
967.963	193
968.209	289
968.456	252
968.703	152
968.949	255
969.196	426
969.443	414
969.689	173
969.936	165
970.183	272
970.429	211
970.676	158
970.923	239
971.169	298
971.416	208
971.663	182
971.909	234
972.156	305
972.402	313
972.649	225
972.896	238
973.142	249
973.389	284
973.635	207
973.882	294
974.129	354
974.375	240
974.622	156
974.868	169
975.115	258
975.361	219
975.608	181
975.855	287
976.101	305
976.348	216
976.594	153
976.841	237
977.087	246
977.334	280
977.58	134
977.827	137
978.073	285
978.32	249
978.566	125
978.813	231
979.059	253
979.306	217
979.552	124
979.799	192
980.045	209
980.292	208
980.538	135
980.785	146
981.031	167
981.278	129
981.524	74
981.771	224
982.017	371
982.263	274
982.51	124
982.756	199
983.003	268
983.249	235
983.495	128
983.742	112
983.988	191
984.235	207
984.481	108
984.727	113
984.974	236
985.22	230
985.467	153
985.713	166
985.959	269
986.206	236
986.452	152
986.698	211
986.945	205
987.191	243
987.437	254
987.684	202
987.93	349
988.176	251
988.423	86
988.669	152
988.915	312
989.162	163
989.408	51
989.654	131
989.901	190
990.147	182
990.393	169
990.639	233
990.886	254
991.132	300
991.378	241
991.625	357
991.871	320
992.117	239
992.363	172
992.61	186
992.856	301
993.102	174
993.348	102
993.594	148
993.841	193
994.087	302
994.333	184
994.579	173
994.826	205
995.072	199
995.318	9
995.564	70
995.81	190
996.057	146
996.303	48
996.549	81
996.795	165
997.041	148
997.287	109
997.534	120
997.78	180
998.026	193
998.272	67
998.518	61
998.764	211
999.01	228
999.256	143
999.503	102
999.749	107
999.995	71
1000.241	51
1000.487	124
1000.733	183
1000.979	144
1001.225	102
1001.471	171
1001.718	229
1001.964	285
1002.21	93
1002.456	102
1002.702	254
1002.948	171
1003.194	101
1003.44	63
1003.686	158
1003.932	135
1004.178	86
1004.424	137
1004.67	271
1004.916	238
1005.162	127
1005.408	89
1005.654	213
1005.9	72
1006.146	20
1006.392	87
1006.638	158
1006.884	124
1007.13	53
1007.376	28
1007.622	204
1007.868	211
1008.114	79
1008.36	143
1008.606	180
1008.852	191
1009.098	118
1009.344	178
1009.59	151
1009.836	22
1010.082	-57
1010.328	56
1010.574	160
1010.82	80
1011.065	-3
1011.311	12
1011.557	122
1011.803	58
1012.049	13
1012.295	81
1012.541	124
1012.787	123
1013.033	-3
1013.278	-13
1013.524	115
1013.77	171
1014.016	71
1014.262	84
1014.508	178
1014.754	27
1015	9
1015.245	166
1015.491	179
1015.737	135
1015.983	-13
1016.229	-32
1016.475	99
1016.72	231
1016.966	235
1017.212	126
1017.458	201
1017.704	119
1017.949	-15
1018.195	135
1018.441	239
1018.687	183
1018.933	33
1019.178	44
1019.424	216
1019.67	208
1019.916	-4
1020.161	52
1020.407	121
1020.653	60
1020.899	-13
1021.144	58
1021.39	136
1021.636	35
1021.882	-55
1022.127	69
1022.373	216
1022.619	152
1022.865	46
1023.11	44
1023.356	158
1023.602	76
1023.847	23
1024.093	88
1024.339	54
1024.584	21
1024.83	12
1025.076	24
1025.321	156
1025.567	122
1025.813	2
1026.058	69
1026.304	140
1026.55	72
1026.795	29
1027.041	36
1027.287	107
1027.532	118
1027.778	66
1028.024	36
1028.269	94
1028.515	15
1028.76	-37
1029.006	39
1029.252	125
1029.497	63
1029.743	51
1029.989	-9
1030.234	127
1030.48	183
1030.725	-6
1030.971	29
1031.216	160
1031.462	75
1031.708	-71
1031.953	-20
1032.199	77
1032.444	81
1032.69	20
1032.935	22
1033.181	138
1033.426	19
1033.672	-114
1033.918	-60
1034.163	51
1034.409	33
1034.654	9
1034.9	97
1035.145	119
1035.391	45
1035.636	-71
1035.882	11
1036.127	13
1036.373	-21
1036.618	-132
1036.864	-6
1037.109	127
1037.355	32
1037.6	-25
1037.845	-9
1038.091	165
1038.336	138
1038.582	140
1038.827	230
1039.073	79
1039.318	-24
1039.564	-96
1039.809	-34
1040.055	135
1040.3	124
1040.545	-32
1040.791	-42
1041.036	15
1041.282	53
1041.527	120
1041.772	-77
1042.018	7
1042.263	40
1042.509	-132
1042.754	-74
1042.999	57
1043.245	35
1043.49	-127
1043.736	-51
1043.981	43
1044.226	57
1044.472	17
1044.717	26
1044.962	147
1045.208	67
1045.453	-157
1045.698	-87
1045.944	119
1046.189	69
1046.434	-36
1046.68	-27
1046.925	124
1047.17	-9
1047.416	-165
1047.661	-80
1047.906	65
1048.152	71
1048.397	-33
1048.642	-33
1048.887	136
1049.133	127
1049.378	-39
1049.623	-43
1049.869	59
1050.114	-3
1050.359	-59
1050.604	11
1050.85	154
1051.095	23
1051.34	-79
1051.585	-8
1051.831	172
1052.076	28
1052.321	-172
1052.566	-64
1052.812	120
1053.057	32
1053.302	-66
1053.547	17
1053.792	108
1054.038	85
1054.283	-123
1054.528	-56
1054.773	31
1055.018	34
1055.264	-80
1055.509	-113
1055.754	21
1055.999	-29
1056.244	-105
1056.49	-40
1056.735	34
1056.98	-15
1057.225	-97
1057.47	91
1057.715	10
1057.96	-77
1058.206	-119
1058.451	-10
1058.696	118
1058.941	64
1059.186	-123
1059.431	-93
1059.676	103
1059.922	42
1060.167	126
1060.412	284
1060.657	83
1060.902	24
1061.147	-150
1061.392	-72
1061.637	86
1061.882	5
1062.127	-149
1062.373	-139
1062.618	115
1062.863	152
1063.108	-50
1063.353	-117
1063.598	-4
1063.843	-26
1064.088	-98
1064.333	-95
1064.578	64
1064.823	53
1065.068	-166
1065.313	-92
1065.558	57
1065.803	42
1066.048	-147
1066.293	-116
1066.538	84
1066.783	9
1067.028	-159
1067.273	-130
1067.518	45
1067.763	-5
1068.008	-164
1068.253	-113
1068.498	72
1068.743	-1
1068.988	-149
1069.233	-135
1069.478	73
1069.723	131
1069.968	-65
1070.213	-27
1070.458	70
1070.703	-19
1070.948	-181
1071.193	-77
1071.438	61
1071.683	83
1071.928	-67
1072.173	-67
1072.418	10
1072.663	-18
1072.908	-151
1073.152	-88
1073.397	77
1073.642	-12
1073.887	-71
1074.132	45
1074.377	37
1074.622	4
1074.867	-120
1075.112	-62
1075.357	122
1075.601	-1
1075.846	-64
1076.091	30
1076.336	83
1076.581	-52
1076.826	-172
1077.071	-93
1077.315	152
1077.56	97
1077.805	-107
1078.05	-66
1078.295	-5
1078.54	-41
1078.785	-161
1079.029	-108
1079.274	57
1079.519	-57
1079.764	-168
1080.009	-32
1080.253	52
1080.498	-60
1080.743	-208
1080.988	-50
1081.233	161
1081.478	73
1081.722	-123
1081.967	0
1082.212	156
1082.457	40
1082.701	-92
1082.946	-68
1083.191	44
1083.436	-57
1083.681	-193
1083.925	-93
1084.17	4
1084.415	25
1084.66	-187
1084.904	-83
1085.149	8
1085.394	-42
1085.639	-198
1085.883	-105
1086.128	139
1086.373	153
1086.617	-73
1086.862	-136
1087.107	-15
1087.352	-59
1087.596	-151
1087.841	-15
1088.086	28
1088.33	14
1088.575	-222
1088.82	-95
1089.064	76
1089.309	-72
1089.554	-181
1089.798	-139
1090.043	48
1090.288	-19
1090.533	-188
1090.777	-103
1091.022	27
1091.266	37
1091.511	-131
1091.756	-49
1092	109
1092.245	99
1092.49	-156
1092.734	-98
1092.979	94
1093.224	-16
1093.468	-153
1093.713	-81
1093.957	23
1094.202	-45
1094.447	-216
1094.691	-84
1094.936	56
1095.181	1
1095.425	-182
1095.67	-152
1095.914	28
1096.159	1
1096.403	-164
1096.648	-70
1096.893	60
1097.137	-80
1097.382	-212
1097.626	-145
1097.871	4
1098.115	-57
1098.36	-210
1098.605	-103
1098.849	-52
1099.094	-115
1099.338	-193
1099.583	-89
1099.827	132
1100.072	43
1100.316	-155
1100.561	-104
1100.805	62
1101.05	25
1101.294	-178
1101.539	-171
1101.783	-5
1102.028	0
1102.273	-154
1102.517	-88
1102.761	55
1103.006	-60
1103.25	-268
1103.495	-170
1103.739	41
1103.984	91
1104.228	-97
1104.473	-40
1104.717	29
1104.962	-17
1105.206	-125
1105.451	-138
1105.695	8
1105.94	-15
1106.184	-147
1106.429	-99
1106.673	28
1106.917	75
1107.162	-158
1107.406	-13
1107.651	134
1107.895	-81
1108.14	-188
1108.384	-95
1108.628	128
1108.873	107
1109.117	-145
1109.362	-125
1109.606	-27
1109.85	-23
1110.095	-183
1110.339	-96
1110.584	90
1110.828	33
1111.072	-94
1111.317	-109
1111.561	7
1111.806	-27
1112.05	-185
1112.294	-85
1112.539	35
1112.783	7
1113.027	-108
1113.272	-110
1113.516	-18
1113.76	-49
1114.005	-145
1114.249	-71
1114.493	64
1114.738	85
1114.982	-48
1115.226	-84
1115.471	-11
1115.715	-20
1115.959	-199
1116.204	-179
1116.448	-1
1116.692	-93
1116.937	-181
1117.181	-13
1117.425	-23
1117.67	-83
1117.914	-164
1118.158	-104
1118.402	135
1118.647	80
1118.891	-81
1119.135	-50
1119.38	87
1119.624	-2
1119.868	-152
1120.112	-143
1120.357	-50
1120.601	-111
1120.845	-217
1121.089	-146
1121.334	35
