Data from HR4C21111__2__09-39-40-472.txt Node

Date: Mon Feb 22 09:39:40 IST 2021
User: Kapil
Spectrometer: HR4C2111
Trigger mode: 4
Integration Time (sec): 2.300000E0
Scans to average: 1
Electric dark correction enabled: true
Nonlinearity correction enabled: false
Boxcar width: 0
XAxis mode: Wavelengths
Number of Pixels in Spectrum: 3648
>>>>>Begin Spectral Data<<<<<
189.472	-429.85
189.745	-429.85
190.017	-429.85
190.289	-452.85
190.561	-296.85
190.834	-16.85
191.106	-111.85
191.378	14.15
191.65	7.15
191.923	-141.85
192.195	-91.85
192.467	124.15
192.739	102.15
193.011	-21.85
193.284	86.15
193.556	167.15
193.828	-11.85
194.1	-104.85
194.372	-129.85
194.644	52.15
194.916	56.15
195.188	-166.85
195.46	-84.85
195.732	34.15
196.004	-13.85
196.276	-119.85
196.548	-73.85
196.82	72.15
197.092	56.15
197.364	-131.85
197.636	-91.85
197.908	7.15
198.18	-47.85
198.452	-86.85
198.724	-48.85
198.996	62.15
199.268	90.15
199.54	-34.85
199.811	-120.85
200.083	100.15
200.355	20.15
200.627	-189.85
200.899	-65.85
201.171	53.15
201.442	-49.85
201.714	-184.85
201.986	-105.85
202.258	71.15
202.529	118.15
202.801	-18.85
203.073	66.15
203.345	178.15
203.616	-9.85
203.888	-158.85
204.16	-147.85
204.431	73.15
204.703	-13.85
204.974	-141.85
205.246	-1.85
205.518	172.15
205.789	-9.85
206.061	-139.85
206.332	-99.85
206.604	17.15
206.876	89.15
207.147	130.15
207.419	27.15
207.69	138.15
207.962	-33.85
208.233	-180.85
208.505	-5.85
208.776	162.15
209.047	74.15
209.319	-130.85
209.59	-87.85
209.862	124.15
210.133	40.15
210.404	-145.85
210.676	-106.85
210.947	80.15
211.219	58.15
211.49	-125.85
211.761	-40.85
212.033	50.15
212.304	-32.85
212.575	-184.85
212.846	-90.85
213.118	28.15
213.389	-50.85
213.66	-110.85
213.931	-42.85
214.203	33.15
214.474	-22.85
214.745	-125.85
215.016	118.15
215.287	410.15
215.559	62.15
215.83	-121.85
216.101	-63.85
216.372	12.15
216.643	81.15
216.914	16.15
217.185	-84.85
217.456	148.15
217.727	27.15
217.998	-153.85
218.269	-55.85
218.54	39.15
218.811	-18.85
219.082	-121.85
219.353	-77.85
219.624	-17.85
219.895	-41.85
220.166	-143.85
220.437	-119.85
220.708	90.15
220.979	-16.85
221.25	-137.85
221.521	-85.85
221.792	32.15
222.063	81.15
222.334	35.15
222.604	177.15
222.875	169.15
223.146	92.15
223.417	-167.85
223.688	-39.85
223.958	109.15
224.229	-61.85
224.5	-186.85
224.771	-72.85
225.041	90.15
225.312	50.15
225.583	-103.85
225.854	-58.85
226.124	97.15
226.395	2.15
226.666	-128.85
226.936	-105.85
227.207	68.15
227.478	-42.85
227.748	-107.85
228.019	46.15
228.289	259.15
228.56	-19.85
228.831	-47.85
229.101	36.15
229.372	67.15
229.642	-14.85
229.913	-157.85
230.183	-128.85
230.454	1.15
230.724	-1.85
230.995	-94.85
231.265	-65.85
231.536	60.15
231.806	46.15
232.076	-104.85
232.347	-123.85
232.617	34.15
232.888	35.15
233.158	-67.85
233.428	-120.85
233.699	-8.85
233.969	-40.85
234.239	-156.85
234.51	-90.85
234.78	38.15
235.05	-15.85
235.321	-121.85
235.591	-60.85
235.861	66.15
236.131	-47.85
236.402	-188.85
236.672	-92.85
236.942	38.15
237.212	38.15
237.483	-56.85
237.753	13.15
238.023	166.15
238.293	17.15
238.563	-82.85
238.833	-93.85
239.103	61.15
239.374	-30.85
239.644	-136.85
239.914	-31.85
240.184	133.15
240.454	-2.85
240.724	-156.85
240.994	-63.85
241.264	24.15
241.534	72.15
241.804	-15.85
242.074	-76.85
242.344	-29.85
242.614	-51.85
242.884	-179.85
243.154	-121.85
243.424	46.15
243.694	77.15
243.964	-82.85
244.234	-67.85
244.503	132.15
244.773	8.15
245.043	-207.85
245.313	-130.85
245.583	130.15
245.853	77.15
246.123	-182.85
246.392	-98.85
246.662	2.15
246.932	-35.85
247.202	-185.85
247.471	-73.85
247.741	251.15
248.011	100.15
248.281	-158.85
248.55	-115.85
248.82	50.15
249.09	2.15
249.359	-97.85
249.629	-86.85
249.899	69.15
250.168	66.15
250.438	-27.85
250.708	-104.85
250.977	91.15
251.247	53.15
251.516	-121.85
251.786	-60.85
252.055	105.15
252.325	12.15
252.595	-97.85
252.864	-58.85
253.134	52.15
253.403	-23.85
253.673	-169.85
253.942	-114.85
254.212	42.15
254.481	-3.85
254.75	-132.85
255.02	-81.85
255.289	72.15
255.559	-9.85
255.828	-130.85
256.097	-31.85
256.367	41.15
256.636	-58.85
256.906	-152.85
257.175	-14.85
257.444	247.15
257.714	58.15
257.983	-81.85
258.252	-37.85
258.521	21.15
258.791	44.15
259.06	-110.85
259.329	-46.85
259.598	54.15
259.868	-10.85
260.137	-117.85
260.406	9.15
260.675	87.15
260.944	28.15
261.214	-145.85
261.483	-42.85
261.752	191.15
262.021	24.15
262.29	-159.85
262.559	-106.85
262.828	19.15
263.097	-43.85
263.366	-196.85
263.635	-79.85
263.905	130.15
264.174	21.15
264.443	-198.85
264.712	-100.85
264.981	34.15
265.25	-45.85
265.519	-135.85
265.788	-136.85
266.057	39.15
266.325	59.15
266.594	-48.85
266.863	-117.85
267.132	35.15
267.401	32.15
267.67	-180.85
267.939	-142.85
268.208	44.15
268.477	78.15
268.745	-133.85
269.014	-96.85
269.283	133.15
269.552	35.15
269.821	-105.85
270.089	-9.85
270.358	2.15
270.627	-18.85
270.896	-125.85
271.164	-154.85
271.433	17.15
271.702	89.15
271.971	-147.85
272.239	-132.85
272.508	33.15
272.777	-7.85
273.045	-18.85
273.314	-30.85
273.583	101.15
273.851	-15.85
274.12	-160.85
274.388	-148.85
274.657	-10.85
274.926	-12.85
275.194	-167.85
275.463	-66.85
275.731	19.15
276	173.15
276.268	376.15
276.537	-78.85
276.805	29.15
277.074	30.15
277.342	-165.85
277.611	-97.85
277.879	100.15
278.148	45.15
278.416	-126.85
278.684	-109.85
278.953	4.15
279.221	-23.85
279.49	-193.85
279.758	-94.85
280.026	10.15
280.295	10.15
280.563	-119.85
280.831	584.15
281.1	1567.15
281.368	167.15
281.636	-98.85
281.904	-118.85
282.173	-8.85
282.441	-47.85
282.709	-100.85
282.977	5.15
283.246	26.15
283.514	-34.85
283.782	-65.85
284.05	23.15
284.318	68.15
284.587	-11.85
284.855	-119.85
285.123	-40.85
285.391	66.15
285.659	54.15
285.927	-126.85
286.195	-47.85
286.463	59.15
286.732	-8.85
287	-99.85
287.268	-50.85
287.536	25.15
287.804	-33.85
288.072	-142.85
288.34	-83.85
288.608	65.15
288.876	-38.85
289.144	-125.85
289.412	-6.85
289.68	53.15
289.948	-22.85
290.215	-115.85
290.483	-100.85
290.751	98.15
291.019	85.15
291.287	-151.85
291.555	-107.85
291.823	19.15
292.091	-25.85
292.358	-65.85
292.626	-29.85
292.894	80.15
293.162	56.15
293.43	-115.85
293.697	-84.85
293.965	57.15
294.233	-25.85
294.501	-157.85
294.768	-71.85
295.036	78.15
295.304	37.15
295.572	-143.85
295.839	-94.85
296.107	111.15
296.375	-3.85
296.642	-121.85
296.91	-112.85
297.178	40.15
297.445	171.15
297.713	98.15
297.98	-74.85
298.248	-20.85
298.516	-32.85
298.783	-128.85
299.051	-114.85
299.318	19.15
299.586	-17.85
299.853	-80.85
300.121	-76.85
300.388	46.15
300.656	3.15
300.923	-134.85
301.191	-35.85
301.458	48.15
301.726	-19.85
301.993	-140.85
302.26	-84.85
302.528	49.15
302.795	5.15
303.063	-85.85
303.33	-58.85
303.597	30.15
303.865	18.15
304.132	-123.85
304.399	-127.85
304.667	-15.85
304.934	20.15
305.201	-108.85
305.469	-23.85
305.736	62.15
306.003	36.15
306.27	-50.85
306.538	-101.85
306.805	-15.85
307.072	-40.85
307.339	-95.85
307.606	-50.85
307.874	148.15
308.141	61.15
308.408	-122.85
308.675	-104.85
308.942	-34.85
309.209	-59.85
309.477	-121.85
309.744	-103.85
310.011	28.15
310.278	55.15
310.545	-26.85
310.812	-29.85
311.079	153.15
311.346	212.15
311.613	60.15
311.88	-29.85
312.147	-69.85
312.414	-33.85
312.681	-113.85
312.948	-34.85
313.215	123.15
313.482	82.15
313.749	-95.85
314.016	-190.85
314.283	-43.85
314.55	62.15
314.817	-90.85
315.083	-117.85
315.35	-65.85
315.617	-126.85
315.884	-131.85
316.151	72.15
316.418	174.15
316.684	-11.85
316.951	-182.85
317.218	-103.85
317.485	3.15
317.752	-56.85
318.018	-114.85
318.285	-8.85
318.552	32.15
318.819	-42.85
319.085	-128.85
319.352	-47.85
319.619	49.15
319.885	-32.85
320.152	-195.85
320.419	-104.85
320.685	41.15
320.952	-25.85
321.219	-73.85
321.485	71.15
321.752	21.15
322.019	-46.85
322.285	40.15
322.552	18.15
322.818	139.15
323.085	-14.85
323.351	-125.85
323.618	-18.85
323.884	31.15
324.151	-75.85
324.417	-35.85
324.684	-77.85
324.95	-41.85
325.217	-135.85
325.483	-175.85
325.75	-22.85
326.016	14.15
326.283	-12.85
326.549	-182.85
326.815	-62.85
327.082	109.15
327.348	21.15
327.615	-106.85
327.881	-29.85
328.147	123.15
328.414	127.15
328.68	-9.85
328.946	-36.85
329.212	34.15
329.479	6.15
329.745	-106.85
330.011	-108.85
330.278	9.15
330.544	-25.85
330.81	-27.85
331.076	-30.85
331.342	-35.85
331.609	-34.85
331.875	-84.85
332.141	-94.85
332.407	30.15
332.673	4.15
332.94	-12.85
333.206	-49.85
333.472	41.15
333.738	70.15
334.004	-124.85
334.27	-23.85
334.536	8.15
334.802	-31.85
335.068	-81.85
335.334	2.15
335.6	34.15
335.866	-18.85
336.132	-153.85
336.398	-78.85
336.664	-23.85
336.93	-51.85
337.196	-86.85
337.462	-13.85
337.728	44.15
337.994	-47.85
338.26	-89.85
338.526	-40.85
338.792	-44.85
339.058	-43.85
339.324	-133.85
339.59	-4.85
339.856	53.15
340.121	-53.85
340.387	-118.85
340.653	79.15
340.919	154.15
341.185	64.15
341.45	-77.85
341.716	32.15
341.982	115.15
342.248	-49.85
342.514	-97.85
342.779	-4.85
343.045	39.15
343.311	-7.85
343.576	-94.85
343.842	-33.85
344.108	130.15
344.374	22.15
344.639	-101.85
344.905	-76.85
345.171	68.15
345.436	-51.85
345.702	-92.85
345.967	43.15
346.233	79.15
346.499	24.15
346.764	-171.85
347.03	-66.85
347.295	-33.85
347.561	6.15
347.826	-43.85
348.092	-123.85
348.357	-9.85
348.623	-13.85
348.888	-114.85
349.154	-68.85
349.419	68.15
349.685	16.15
349.95	-63.85
350.216	-41.85
350.481	56.15
350.747	-29.85
351.012	-153.85
351.277	-90.85
351.543	38.15
351.808	-8.85
352.074	-175.85
352.339	-115.85
352.604	47.15
352.87	17.15
353.135	-100.85
353.4	-55.85
353.666	16.15
353.931	-6.85
354.196	-129.85
354.461	-112.85
354.727	43.15
354.992	18.15
355.257	-119.85
355.522	-23.85
355.788	21.15
356.053	84.15
356.318	-57.85
356.583	-72.85
356.848	119.15
357.113	242.15
357.379	-31.85
357.644	-48.85
357.909	146.15
358.174	161.15
358.439	-104.85
358.704	-34.85
358.969	86.15
359.234	108.15
359.499	-81.85
359.765	8.15
360.03	115.15
360.295	134.15
360.56	-30.85
360.825	23.15
361.09	219.15
361.355	46.15
361.62	-1.85
361.885	28.15
362.15	22.15
362.415	52.15
362.679	-6.85
362.944	139.15
363.209	168.15
363.474	162.15
363.739	102.15
364.004	44.15
364.269	102.15
364.534	132.15
364.799	84.15
365.063	93.15
365.328	200.15
365.593	205.15
365.858	78.15
366.123	80.15
366.387	220.15
366.652	149.15
366.917	55.15
367.182	110.15
367.447	253.15
367.711	225.15
367.976	165.15
368.241	226.15
368.505	278.15
368.77	195.15
369.035	178.15
369.299	232.15
369.564	292.15
369.829	236.15
370.093	194.15
370.358	186.15
370.623	284.15
370.887	290.15
371.152	169.15
371.416	262.15
371.681	326.15
371.946	233.15
372.21	208.15
372.475	345.15
372.739	391.15
373.004	340.15
373.268	305.15
373.533	372.15
373.797	427.15
374.062	423.15
374.326	279.15
374.591	349.15
374.855	469.15
375.12	413.15
375.384	260.15
375.648	352.15
375.913	501.15
376.177	533.15
376.442	410.15
376.706	429.15
376.97	576.15
377.235	523.15
377.499	501.15
377.763	526.15
378.028	535.15
378.292	602.15
378.556	530.15
378.821	493.15
379.085	570.15
379.349	507.15
379.614	452.15
379.878	572.15
380.142	788.15
380.406	729.15
380.671	733.15
380.935	858.15
381.199	973.15
381.463	852.15
381.727	811.15
381.991	779.15
382.256	877.15
382.52	861.15
382.784	874.15
383.048	990.15
383.312	940.15
383.576	913.15
383.84	835.15
384.104	905.15
384.369	1020.15
384.633	946.15
384.897	864.15
385.161	981.15
385.425	1107.15
385.689	1044.15
385.953	1006.15
386.217	1013.15
386.481	1141.15
386.745	1182.15
387.009	1171.15
387.273	1144.15
387.537	1197.15
387.801	1218.15
388.064	1190.15
388.328	1300.15
388.592	1357.15
388.856	1312.15
389.12	1249.15
389.384	1349.15
389.648	1406.15
389.912	1470.15
390.176	1473.15
390.439	1588.15
390.703	1452.15
390.967	1437.15
391.231	1377.15
391.495	1451.15
391.758	1546.15
392.022	1588.15
392.286	1450.15
392.55	1455.15
392.813	1625.15
393.077	1702.15
393.341	1657.15
393.605	1755.15
393.868	1737.15
394.132	1723.15
394.396	1680.15
394.659	1843.15
394.923	1814.15
395.187	1755.15
395.45	1743.15
395.714	1844.15
395.978	1872.15
396.241	1902.15
396.505	1840.15
396.768	1927.15
397.032	2008.15
397.295	1989.15
397.559	1939.15
397.823	1925.15
398.086	2056.15
398.35	2022.15
398.613	1936.15
398.877	2098.15
399.14	2252.15
399.404	2278.15
399.667	2182.15
399.931	2157.15
400.194	2249.15
400.457	2224.15
400.721	2215.15
400.984	2307.15
401.248	2313.15
401.511	2276.15
401.775	2186.15
402.038	2254.15
402.301	2466.15
402.565	2458.15
402.828	2254.15
403.091	2349.15
403.355	2530.15
403.618	2488.15
403.881	2476.15
404.145	2533.15
404.408	2624.15
404.671	2538.15
404.934	2574.15
405.198	2648.15
405.461	2693.15
405.724	2720.15
405.987	2699.15
406.251	2819.15
406.514	2927.15
406.777	2807.15
407.04	2682.15
407.303	2659.15
407.567	2814.15
407.83	2898.15
408.093	2714.15
408.356	2822.15
408.619	2949.15
408.882	3024.15
409.145	2920.15
409.408	2876.15
409.672	3028.15
409.935	2958.15
410.198	2800.15
410.461	2877.15
410.724	3145.15
410.987	3048.15
411.25	2888.15
411.513	3030.15
411.776	3158.15
412.039	3012.15
412.302	2941.15
412.565	3039.15
412.828	3080.15
413.091	3067.15
413.354	2991.15
413.617	2971.15
413.879	3042.15
414.142	3048.15
414.405	2920.15
414.668	2941.15
414.931	3118.15
415.194	3095.15
415.457	2965.15
415.72	3047.15
415.983	3050.15
416.245	3058.15
416.508	2969.15
416.771	2931.15
417.034	3087.15
417.297	3047.15
417.559	3019.15
417.822	3014.15
418.085	3098.15
418.348	3072.15
418.61	2958.15
418.873	2925.15
419.136	2970.15
419.399	2983.15
419.661	3040.15
419.924	2967.15
420.187	3068.15
420.449	3075.15
420.712	3039.15
420.975	3030.15
421.237	3102.15
421.5	3148.15
421.762	3175.15
422.025	3185.15
422.288	3297.15
422.55	3093.15
422.813	3002.15
423.075	3104.15
423.338	3205.15
423.601	3249.15
423.863	3212.15
424.126	3264.15
424.388	3405.15
424.651	3354.15
424.913	3286.15
425.176	3297.15
425.438	3325.15
425.701	3369.15
425.963	3269.15
426.225	3236.15
426.488	3301.15
426.75	3307.15
427.013	3318.15
427.275	3410.15
427.538	3435.15
427.8	3435.15
428.062	3349.15
428.325	3365.15
428.587	3437.15
428.849	3432.15
429.112	3441.15
429.374	3404.15
429.636	3457.15
429.899	3561.15
430.161	3427.15
430.423	3497.15
430.686	3668.15
430.948	3663.15
431.21	3454.15
431.472	3422.15
431.735	3584.15
431.997	3593.15
432.259	3564.15
432.521	3454.15
432.783	3566.15
433.046	3596.15
433.308	3504.15
433.57	3549.15
433.832	3776.15
434.094	3585.15
434.356	3464.15
434.618	3613.15
434.881	3688.15
435.143	3725.15
435.405	3692.15
435.667	3653.15
435.929	3724.15
436.191	3746.15
436.453	3636.15
436.715	3724.15
436.977	3845.15
437.239	3947.15
437.501	3795.15
437.763	3753.15
438.025	3892.15
438.287	3850.15
438.549	3790.15
438.811	3775.15
439.073	3821.15
439.335	3841.15
439.597	3780.15
439.859	3747.15
440.121	3861.15
440.383	3818.15
440.645	3807.15
440.907	3844.15
441.168	3862.15
441.43	3878.15
441.692	3898.15
441.954	3959.15
442.216	3989.15
442.478	3915.15
442.74	3765.15
443.001	3931.15
443.263	4105.15
443.525	3942.15
443.787	3797.15
444.048	3801.15
444.31	3856.15
444.572	3910.15
444.834	3874.15
445.095	3871.15
445.357	4056.15
445.619	3895.15
445.881	3757.15
446.142	3845.15
446.404	3875.15
446.666	3890.15
446.927	3852.15
447.189	3978.15
447.451	4070.15
447.712	3937.15
447.974	3756.15
448.235	3783.15
448.497	3912.15
448.759	3848.15
449.02	3827.15
449.282	3817.15
449.543	3926.15
449.805	4023.15
450.066	3776.15
450.328	3874.15
450.59	4084.15
450.851	3906.15
451.113	3784.15
451.374	3764.15
451.636	4030.15
451.897	4066.15
452.158	3928.15
452.42	4005.15
452.681	4040.15
452.943	3852.15
453.204	3831.15
453.466	3849.15
453.727	3847.15
453.988	3901.15
454.25	3828.15
454.511	3868.15
454.773	3937.15
455.034	4072.15
455.295	3804.15
455.557	3932.15
455.818	3962.15
456.079	3933.15
456.341	4029.15
456.602	4091.15
456.863	4107.15
457.124	3947.15
457.386	3856.15
457.647	3863.15
457.908	3972.15
458.169	4075.15
458.431	3952.15
458.692	3983.15
458.953	3993.15
459.214	4001.15
459.476	4134.15
459.737	4252.15
459.998	4284.15
460.259	4167.15
460.52	4161.15
460.781	4252.15
461.043	4401.15
461.304	4272.15
461.565	4115.15
461.826	4164.15
462.087	4334.15
462.348	4518.15
462.609	4475.15
462.87	4375.15
463.131	4332.15
463.392	4537.15
463.653	4550.15
463.914	4539.15
464.175	4540.15
464.436	4581.15
464.697	4562.15
464.958	4428.15
465.219	4532.15
465.48	4649.15
465.741	4690.15
466.002	4540.15
466.263	4700.15
466.524	4758.15
466.785	4594.15
467.046	4697.15
467.307	4837.15
467.568	4888.15
467.829	4901.15
468.089	4917.15
468.35	4946.15
468.611	4865.15
468.872	4859.15
469.133	5035.15
469.394	5167.15
469.655	5242.15
469.915	5114.15
470.176	4978.15
470.437	5079.15
470.698	5235.15
470.958	5262.15
471.219	5333.15
471.48	5425.15
471.741	5499.15
472.001	5478.15
472.262	5449.15
472.523	5704.15
472.784	5822.15
473.044	5668.15
473.305	5699.15
473.566	5729.15
473.826	5813.15
474.087	5785.15
474.348	5869.15
474.608	6062.15
474.869	6051.15
475.129	5940.15
475.39	6047.15
475.651	6205.15
475.911	6375.15
476.172	6285.15
476.432	6408.15
476.693	6618.15
476.953	6428.15
477.214	6437.15
477.475	6520.15
477.735	6535.15
477.996	6640.15
478.256	6520.15
478.517	6624.15
478.777	6792.15
479.038	6914.15
479.298	6911.15
479.558	6952.15
479.819	7067.15
480.079	7098.15
480.34	7176.15
480.6	7160.15
480.861	7314.15
481.121	7323.15
481.381	7283.15
481.642	7343.15
481.902	7339.15
482.162	7341.15
482.423	7423.15
482.683	7524.15
482.943	7650.15
483.204	7646.15
483.464	7652.15
483.724	7717.15
483.985	7777.15
484.245	7840.15
484.505	7773.15
484.765	7881.15
485.026	7986.15
485.286	8051.15
485.546	8032.15
485.806	8045.15
486.067	8055.15
486.327	8010.15
486.587	8022.15
486.847	8081.15
487.107	8208.15
487.368	8236.15
487.628	8207.15
487.888	8333.15
488.148	8435.15
488.408	8314.15
488.668	8352.15
488.928	8395.15
489.188	8424.15
489.449	8542.15
489.709	8408.15
489.969	8422.15
490.229	8536.15
490.489	8596.15
490.749	8486.15
491.009	8465.15
491.269	8564.15
491.529	8611.15
491.789	8541.15
492.049	8623.15
492.309	8674.15
492.569	8596.15
492.829	8650.15
493.089	8646.15
493.349	8830.15
493.609	8779.15
493.869	8623.15
494.129	8760.15
494.389	8848.15
494.648	8724.15
494.908	8672.15
495.168	8756.15
495.428	8909.15
495.688	8801.15
495.948	8677.15
496.208	8713.15
496.467	8778.15
496.727	8806.15
496.987	8832.15
497.247	8835.15
497.507	8893.15
497.767	8892.15
498.026	8706.15
498.286	8844.15
498.546	9002.15
498.806	8885.15
499.065	8928.15
499.325	8820.15
499.585	8815.15
499.845	8875.15
500.104	8853.15
500.364	8926.15
500.624	8911.15
500.883	8828.15
501.143	8878.15
501.403	8885.15
501.662	9041.15
501.922	9019.15
502.182	8787.15
502.441	8798.15
502.701	8870.15
502.96	9007.15
503.22	8910.15
503.48	8853.15
503.739	8949.15
503.999	8902.15
504.258	8816.15
504.518	8924.15
504.777	8989.15
505.037	8974.15
505.296	8876.15
505.556	8827.15
505.815	8972.15
506.075	9098.15
506.334	9001.15
506.594	8776.15
506.853	8795.15
507.113	8830.15
507.372	8669.15
507.632	8793.15
507.891	8864.15
508.151	8922.15
508.41	8789.15
508.669	8865.15
508.929	8916.15
509.188	8807.15
509.447	8786.15
509.707	8739.15
509.966	8837.15
510.226	8862.15
510.485	8865.15
510.744	8900.15
511.004	8947.15
511.263	8857.15
511.522	8782.15
511.781	8808.15
512.041	8957.15
512.3	8897.15
512.559	8952.15
512.818	8979.15
513.078	8974.15
513.337	8960.15
513.596	8856.15
513.855	8815.15
514.115	8966.15
514.374	8931.15
514.633	8859.15
514.892	8876.15
515.151	8969.15
515.41	9016.15
515.67	8921.15
515.929	8897.15
516.188	9048.15
516.447	8936.15
516.706	8878.15
516.965	8937.15
517.224	8971.15
517.483	8964.15
517.743	8906.15
518.002	8944.15
518.261	8976.15
518.52	8950.15
518.779	8856.15
519.038	8839.15
519.297	8916.15
519.556	8954.15
519.815	8843.15
520.074	8849.15
520.333	9056.15
520.592	9009.15
520.851	8854.15
521.11	8978.15
521.369	9104.15
521.628	8914.15
521.887	8834.15
522.145	8985.15
522.404	8916.15
522.663	8898.15
522.922	8810.15
523.181	8805.15
523.44	8948.15
523.699	9017.15
523.958	8812.15
524.217	8832.15
524.475	8890.15
524.734	8912.15
524.993	8875.15
525.252	8877.15
525.511	8954.15
525.769	8894.15
526.028	8815.15
526.287	8862.15
526.546	8897.15
526.805	8870.15
527.063	8795.15
527.322	8796.15
527.581	8838.15
527.839	8856.15
528.098	8887.15
528.357	8882.15
528.616	8877.15
528.874	8878.15
529.133	8784.15
529.392	8848.15
529.65	8759.15
529.909	8723.15
530.168	8730.15
530.426	8770.15
530.685	8834.15
530.943	8810.15
531.202	8704.15
531.461	8750.15
531.719	8897.15
531.978	8817.15
532.236	8710.15
532.495	8832.15
532.753	8880.15
533.012	8788.15
533.271	8733.15
533.529	8692.15
533.788	8773.15
534.046	8705.15
534.305	8716.15
534.563	8888.15
534.822	8922.15
535.08	8833.15
535.338	8736.15
535.597	8800.15
535.855	8947.15
536.114	8832.15
536.372	8742.15
536.631	8838.15
536.889	8884.15
537.147	8823.15
537.406	8636.15
537.664	8831.15
537.923	8948.15
538.181	8923.15
538.439	8789.15
538.698	8849.15
538.956	8908.15
539.214	8857.15
539.473	8813.15
539.731	8889.15
539.989	9025.15
540.248	8941.15
540.506	8853.15
540.764	8908.15
541.022	8974.15
541.281	9048.15
541.539	8982.15
541.797	8937.15
542.055	9032.15
542.314	9102.15
542.572	9136.15
542.83	9057.15
543.088	9136.15
543.346	9077.15
543.604	9002.15
543.863	9119.15
544.121	9231.15
544.379	9210.15
544.637	9094.15
544.895	9270.15
545.153	9418.15
545.411	9235.15
545.67	9101.15
545.928	9245.15
546.186	9374.15
546.444	9454.15
546.702	9390.15
546.96	9440.15
547.218	9495.15
547.476	9498.15
547.734	9403.15
547.992	9479.15
548.25	9672.15
548.508	9595.15
548.766	9556.15
549.024	9586.15
549.282	9667.15
549.54	9787.15
549.798	9747.15
550.056	9706.15
550.314	9845.15
550.572	9822.15
550.83	9744.15
551.088	9864.15
551.346	10051.15
551.603	9972.15
551.861	9881.15
552.119	10023.15
552.377	10090.15
552.635	10003.15
552.893	9889.15
553.151	10007.15
553.409	10250.15
553.666	10247.15
553.924	10153.15
554.182	10113.15
554.44	10309.15
554.698	10408.15
554.955	10254.15
555.213	10264.15
555.471	10456.15
555.729	10415.15
555.986	10170.15
556.244	10314.15
556.502	10569.15
556.76	10480.15
557.017	10470.15
557.275	10479.15
557.533	10669.15
557.79	10650.15
558.048	10483.15
558.306	10581.15
558.563	10742.15
558.821	10675.15
559.079	10598.15
559.336	10600.15
559.594	10668.15
559.852	10628.15
560.109	10572.15
560.367	10685.15
560.624	10716.15
560.882	10713.15
561.14	10760.15
561.397	10813.15
561.655	10772.15
561.912	10815.15
562.17	10762.15
562.427	10777.15
562.685	10849.15
562.942	10816.15
563.2	10800.15
563.457	10799.15
563.715	10832.15
563.972	10915.15
564.23	10754.15
564.487	10706.15
564.745	10851.15
565.002	10866.15
565.26	10781.15
565.517	10751.15
565.774	10784.15
566.032	10794.15
566.289	10710.15
566.547	10774.15
566.804	10875.15
567.061	10841.15
567.319	10702.15
567.576	10754.15
567.833	10856.15
568.091	10928.15
568.348	10759.15
568.605	10777.15
568.863	10836.15
569.12	10808.15
569.377	10723.15
569.635	10683.15
569.892	10654.15
570.149	10597.15
570.406	10527.15
570.664	10605.15
570.921	10733.15
571.178	10604.15
571.435	10534.15
571.693	10540.15
571.95	10603.15
572.207	10491.15
572.464	10391.15
572.721	10518.15
572.979	10568.15
573.236	10492.15
573.493	10383.15
573.75	10367.15
574.007	10429.15
574.264	10328.15
574.521	10255.15
574.779	10162.15
575.036	10262.15
575.293	10260.15
575.55	10148.15
575.807	10104.15
576.064	10097.15
576.321	10019.15
576.578	9845.15
576.835	9836.15
577.092	10023.15
577.349	9981.15
577.606	9722.15
577.863	9715.15
578.12	9702.15
578.377	9704.15
578.634	9477.15
578.891	9516.15
579.148	9584.15
579.405	9495.15
579.662	9355.15
579.919	9431.15
580.176	9390.15
580.433	9341.15
580.69	9201.15
580.947	9258.15
581.204	9328.15
581.461	9175.15
581.717	9008.15
581.974	9110.15
582.231	9100.15
582.488	8916.15
582.745	8718.15
583.002	8720.15
583.259	8881.15
583.515	8821.15
583.772	8647.15
584.029	8655.15
584.286	8694.15
584.543	8529.15
584.799	8468.15
585.056	8481.15
585.313	8513.15
585.57	8476.15
585.826	8267.15
586.083	8314.15
586.34	8475.15
586.597	8250.15
586.853	8050.15
587.11	8056.15
587.367	8217.15
587.623	8164.15
587.88	8048.15
588.137	7886.15
588.393	7945.15
588.65	7879.15
588.907	7796.15
589.163	7762.15
589.42	7778.15
589.677	7776.15
589.933	7650.15
590.19	7682.15
590.446	7804.15
590.703	7787.15
590.96	7514.15
591.216	7474.15
591.473	7517.15
591.729	7526.15
591.986	7507.15
592.242	7529.15
592.499	7654.15
592.755	7485.15
593.012	7311.15
593.268	7297.15
593.525	7270.15
593.781	7337.15
594.038	7257.15
594.294	7280.15
594.551	7325.15
594.807	7270.15
595.064	7216.15
595.32	7155.15
595.576	7231.15
595.833	7223.15
596.089	7129.15
596.346	7232.15
596.602	7274.15
596.858	7297.15
597.115	7141.15
597.371	7174.15
597.628	7177.15
597.884	7137.15
598.14	7041.15
598.397	7159.15
598.653	7283.15
598.909	7153.15
599.166	7032.15
599.422	7037.15
599.678	7119.15
599.934	7133.15
600.191	6924.15
600.447	6996.15
600.703	7057.15
600.959	6965.15
601.216	6832.15
601.472	6891.15
601.728	6939.15
601.984	6882.15
602.241	6818.15
602.497	6885.15
602.753	7085.15
603.009	6984.15
603.265	6851.15
603.521	6937.15
603.778	7071.15
604.034	6903.15
604.29	6812.15
604.546	6862.15
604.802	6919.15
605.058	6812.15
605.314	6769.15
605.571	6836.15
605.827	6874.15
606.083	6877.15
606.339	6773.15
606.595	6812.15
606.851	6964.15
607.107	6956.15
607.363	6739.15
607.619	6746.15
607.875	6971.15
608.131	6921.15
608.387	6679.15
608.643	6724.15
608.899	6823.15
609.155	6772.15
609.411	6726.15
609.667	6768.15
609.923	6776.15
610.179	6738.15
610.435	6538.15
610.691	6580.15
610.947	6741.15
611.203	6683.15
611.459	6630.15
611.714	6694.15
611.97	6793.15
612.226	6732.15
612.482	6545.15
612.738	6655.15
612.994	6853.15
613.25	6681.15
613.505	6496.15
613.761	6574.15
614.017	6657.15
614.273	6623.15
614.529	6532.15
614.785	6481.15
615.04	6548.15
615.296	6552.15
615.552	6507.15
615.808	6493.15
616.063	6525.15
616.319	6530.15
616.575	6430.15
616.831	6506.15
617.086	6641.15
617.342	6561.15
617.598	6374.15
617.854	6429.15
618.109	6472.15
618.365	6365.15
618.621	6289.15
618.876	6346.15
619.132	6456.15
619.388	6398.15
619.643	6217.15
619.899	6348.15
620.155	6418.15
620.41	6376.15
620.666	6249.15
620.921	6268.15
621.177	6371.15
621.433	6348.15
621.688	6278.15
621.944	6211.15
622.199	6264.15
622.455	6265.15
622.71	6101.15
622.966	6116.15
623.221	6125.15
623.477	6135.15
623.732	6133.15
623.988	6032.15
624.243	6143.15
624.499	6090.15
624.754	5901.15
625.01	5959.15
625.265	6056.15
625.521	6104.15
625.776	5972.15
626.032	5943.15
626.287	5980.15
626.543	5919.15
626.798	5885.15
627.053	5906.15
627.309	5970.15
627.564	5830.15
627.82	5785.15
628.075	5899.15
628.33	5851.15
628.586	5693.15
628.841	5584.15
629.096	5748.15
629.352	5817.15
629.607	5700.15
629.862	5617.15
630.118	5750.15
630.373	5710.15
630.628	5709.15
630.884	5531.15
631.139	5570.15
631.394	5701.15
631.649	5620.15
631.905	5487.15
632.16	5586.15
632.415	5745.15
632.67	5574.15
632.926	5426.15
633.181	5416.15
633.436	5500.15
633.691	5416.15
633.946	5264.15
634.202	5294.15
634.457	5428.15
634.712	5348.15
634.967	5265.15
635.222	5245.15
635.477	5319.15
635.733	5298.15
635.988	5171.15
636.243	5178.15
636.498	5254.15
636.753	5224.15
637.008	5084.15
637.263	5118.15
637.518	5207.15
637.773	5173.15
638.028	5154.15
638.283	5137.15
638.539	5204.15
638.794	5160.15
639.049	5031.15
639.304	5006.15
639.559	5027.15
639.814	4993.15
640.069	4910.15
640.324	4946.15
640.579	5057.15
640.834	5008.15
641.089	4857.15
641.344	4927.15
641.598	5112.15
641.853	4991.15
642.108	4789.15
642.363	4706.15
642.618	4875.15
642.873	4815.15
643.128	4689.15
643.383	4767.15
643.638	4801.15
643.893	4843.15
644.148	4811.15
644.402	4666.15
644.657	4779.15
644.912	4696.15
645.167	4633.15
645.422	4713.15
645.677	4700.15
645.931	4766.15
646.186	4722.15
646.441	4590.15
646.696	4561.15
646.951	4568.15
647.205	4519.15
647.46	4548.15
647.715	4574.15
647.97	4724.15
648.224	4827.15
648.479	4654.15
648.734	4714.15
648.989	4659.15
649.243	4525.15
649.498	4462.15
649.753	4503.15
650.007	4589.15
650.262	4501.15
650.517	4433.15
650.771	4476.15
651.026	4443.15
651.281	4320.15
651.535	4391.15
651.79	4465.15
652.045	4468.15
652.299	4338.15
652.554	4376.15
652.809	4473.15
653.063	4578.15
653.318	4478.15
653.572	4329.15
653.827	4433.15
654.081	4354.15
654.336	4228.15
654.591	4245.15
654.845	4388.15
655.1	4303.15
655.354	4221.15
655.609	4309.15
655.863	4406.15
656.118	4367.15
656.372	4236.15
656.627	4256.15
656.881	4342.15
657.136	4262.15
657.39	4178.15
657.645	4297.15
657.899	4413.15
658.153	4258.15
658.408	4171.15
658.662	4248.15
658.917	4285.15
659.171	4198.15
659.426	4105.15
659.68	4175.15
659.934	4296.15
660.189	4244.15
660.443	4094.15
660.697	4263.15
660.952	4355.15
661.206	4247.15
661.46	4100.15
661.715	4125.15
661.969	4271.15
662.223	4278.15
662.478	4139.15
662.732	4196.15
662.986	4255.15
663.241	4254.15
663.495	4143.15
663.749	4153.15
664.003	4284.15
664.258	4228.15
664.512	4160.15
664.766	4201.15
665.02	4279.15
665.275	4314.15
665.529	4098.15
665.783	4100.15
666.037	4192.15
666.291	4235.15
666.546	4150.15
666.8	4189.15
667.054	4207.15
667.308	4227.15
667.562	4065.15
667.816	4134.15
668.071	4274.15
668.325	4197.15
668.579	4154.15
668.833	4173.15
669.087	4389.15
669.341	4298.15
669.595	4162.15
669.849	4220.15
670.103	4303.15
670.357	4286.15
670.612	4250.15
670.866	4253.15
671.12	4334.15
671.374	4332.15
671.628	4330.15
671.882	4272.15
672.136	4324.15
672.39	4334.15
672.644	4155.15
672.898	4313.15
673.152	4472.15
673.406	4383.15
673.66	4297.15
673.914	4341.15
674.168	4403.15
674.422	4345.15
674.675	4237.15
674.929	4312.15
675.183	4448.15
675.437	4419.15
675.691	4328.15
675.945	4392.15
676.199	4516.15
676.453	4379.15
676.707	4294.15
676.961	4334.15
677.214	4436.15
677.468	4489.15
677.722	4531.15
677.976	4480.15
678.23	4561.15
678.484	4534.15
678.737	4416.15
678.991	4433.15
679.245	4516.15
679.499	4430.15
679.753	4380.15
680.006	4490.15
680.26	4607.15
680.514	4599.15
680.768	4424.15
681.021	4525.15
681.275	4581.15
681.529	4585.15
681.783	4510.15
682.036	4636.15
682.29	4603.15
682.544	4609.15
682.797	4567.15
683.051	4568.15
683.305	4636.15
683.559	4646.15
683.812	4631.15
684.066	4634.15
684.32	4738.15
684.573	4711.15
684.827	4700.15
685.08	4710.15
685.334	4810.15
685.588	4736.15
685.841	4558.15
686.095	4775.15
686.348	4795.15
686.602	4791.15
686.856	4714.15
687.109	4696.15
687.363	4737.15
687.616	4656.15
687.87	4562.15
688.123	4654.15
688.377	4775.15
688.63	4772.15
688.884	4766.15
689.137	4880.15
689.391	4899.15
689.644	4698.15
689.898	4658.15
690.151	4691.15
690.405	4811.15
690.658	4755.15
690.912	4666.15
691.165	4725.15
691.419	4831.15
691.672	4845.15
691.926	4750.15
692.179	4772.15
692.432	4840.15
692.686	4797.15
692.939	4681.15
693.193	4800.15
693.446	4921.15
693.699	4918.15
693.953	4860.15
694.206	4852.15
694.459	4931.15
694.713	4940.15
694.966	4783.15
695.219	4790.15
695.473	4884.15
695.726	4837.15
695.979	4769.15
696.233	4857.15
696.486	4926.15
696.739	4907.15
696.992	4795.15
697.246	4917.15
697.499	5020.15
697.752	4825.15
698.006	4784.15
698.259	4919.15
698.512	4896.15
698.765	4877.15
699.018	4830.15
699.272	4861.15
699.525	4873.15
699.778	4806.15
700.031	4752.15
700.284	4772.15
700.538	4858.15
700.791	4866.15
701.044	4837.15
701.297	4859.15
701.55	4873.15
701.803	4805.15
702.056	4715.15
702.31	4825.15
702.563	4928.15
702.816	4818.15
703.069	4647.15
703.322	4712.15
703.575	4850.15
703.828	4896.15
704.081	4784.15
704.334	4775.15
704.587	4851.15
704.84	4765.15
705.093	4769.15
705.346	4868.15
705.599	4860.15
705.853	4842.15
706.106	4882.15
706.359	5156.15
706.612	4921.15
706.865	4858.15
707.118	4674.15
707.37	4799.15
707.623	4905.15
707.876	4832.15
708.129	4770.15
708.382	4870.15
708.635	4962.15
708.888	4753.15
709.141	4642.15
709.394	4756.15
709.647	4843.15
709.9	4733.15
710.153	4621.15
710.406	4748.15
710.658	4800.15
710.911	4780.15
711.164	4653.15
711.417	4650.15
711.67	4718.15
711.923	4706.15
712.176	4624.15
712.428	4674.15
712.681	4743.15
712.934	4695.15
713.187	4586.15
713.44	4574.15
713.692	4691.15
713.945	4621.15
714.198	4524.15
714.451	4507.15
714.704	4681.15
714.956	4692.15
715.209	4718.15
715.462	4610.15
715.715	4632.15
715.967	4622.15
716.22	4409.15
716.473	4456.15
716.725	4626.15
716.978	4578.15
717.231	4540.15
717.484	4551.15
717.736	4498.15
717.989	4419.15
718.242	4344.15
718.494	4453.15
718.747	4564.15
718.999	4497.15
719.252	4532.15
719.505	4499.15
719.757	4495.15
720.01	4463.15
720.263	4398.15
720.515	4438.15
720.768	4506.15
721.02	4460.15
721.273	4352.15
721.525	4295.15
721.778	4380.15
722.031	4449.15
722.283	4268.15
722.536	4295.15
722.788	4338.15
723.041	4326.15
723.293	4237.15
723.546	4201.15
723.798	4317.15
724.051	4398.15
724.303	4324.15
724.556	4308.15
724.808	4370.15
725.061	4324.15
725.313	4188.15
725.566	4169.15
725.818	4215.15
726.071	4182.15
726.323	4013.15
726.575	4089.15
726.828	4234.15
727.08	4228.15
727.333	4097.15
727.585	4103.15
727.837	4126.15
728.09	4118.15
728.342	4017.15
728.595	4122.15
728.847	4278.15
729.099	4016.15
729.352	3990.15
729.604	3992.15
729.856	4078.15
730.109	4048.15
730.361	3928.15
730.613	4062.15
730.866	4144.15
731.118	3989.15
731.37	3886.15
731.622	3935.15
731.875	4000.15
732.127	4073.15
732.379	3998.15
732.631	4054.15
732.884	3997.15
733.136	3907.15
733.388	3797.15
733.64	3871.15
733.893	4005.15
734.145	3946.15
734.397	3790.15
734.649	3794.15
734.901	3887.15
735.154	3795.15
735.406	3714.15
735.658	3730.15
735.91	3860.15
736.162	3790.15
736.414	3633.15
736.667	3774.15
736.919	3786.15
737.171	3699.15
737.423	3652.15
737.675	3702.15
737.927	3775.15
738.179	3702.15
738.431	3650.15
738.684	3601.15
738.936	3690.15
739.188	3729.15
739.44	3523.15
739.692	3491.15
739.944	3541.15
740.196	3564.15
740.448	3520.15
740.7	3541.15
740.952	3575.15
741.204	3566.15
741.456	3493.15
741.708	3529.15
741.96	3532.15
742.212	3598.15
742.464	3558.15
742.716	3421.15
742.968	3551.15
743.22	3467.15
743.472	3329.15
743.724	3414.15
743.976	3567.15
744.228	3566.15
744.48	3343.15
744.732	3353.15
744.983	3491.15
745.235	3470.15
745.487	3437.15
745.739	3476.15
745.991	3466.15
746.243	3545.15
746.495	3376.15
746.747	3379.15
746.999	3482.15
747.25	3438.15
747.502	3347.15
747.754	3419.15
748.006	3373.15
748.258	3457.15
748.51	3497.15
748.761	3355.15
749.013	3394.15
749.265	3454.15
749.517	3434.15
749.768	3493.15
750.02	3486.15
750.272	3422.15
750.524	3273.15
750.776	3219.15
751.027	3377.15
751.279	3401.15
751.531	3196.15
751.782	3312.15
752.034	3369.15
752.286	3254.15
752.538	3152.15
752.789	3249.15
753.041	3341.15
753.293	3298.15
753.544	3215.15
753.796	3230.15
754.048	3314.15
754.299	3255.15
754.551	3222.15
754.803	3142.15
755.054	3178.15
755.306	3246.15
755.558	3128.15
755.809	3140.15
756.061	3292.15
756.312	3165.15
756.564	3131.15
756.816	3182.15
757.067	3170.15
757.319	3116.15
757.57	3051.15
757.822	3157.15
758.073	3234.15
758.325	3161.15
758.577	2992.15
758.828	2992.15
759.08	3178.15
759.331	3185.15
759.583	2984.15
759.834	3091.15
760.086	3074.15
760.337	3047.15
760.589	2971.15
760.84	2990.15
761.092	3075.15
761.343	3002.15
761.595	2827.15
761.846	2983.15
762.097	3014.15
762.349	2974.15
762.6	2868.15
762.852	3011.15
763.103	3093.15
763.355	2971.15
763.606	2875.15
763.857	2997.15
764.109	3067.15
764.36	2966.15
764.612	2870.15
764.863	2932.15
765.114	2971.15
765.366	2854.15
765.617	2777.15
765.868	2838.15
766.12	2967.15
766.371	2937.15
766.622	2734.15
766.874	2836.15
767.125	2986.15
767.376	2845.15
767.628	2765.15
767.879	2813.15
768.13	2880.15
768.381	2886.15
768.633	2813.15
768.884	2837.15
769.135	2903.15
769.386	2839.15
769.638	2779.15
769.889	2817.15
770.14	2824.15
770.391	2713.15
770.643	2673.15
770.894	2674.15
771.145	2787.15
771.396	2724.15
771.647	2630.15
771.899	2749.15
772.15	2801.15
772.401	2754.15
772.652	2605.15
772.903	2658.15
773.154	2989.15
773.406	3164.15
773.657	2659.15
773.908	2647.15
774.159	2715.15
774.41	2710.15
774.661	2580.15
774.912	2636.15
775.163	2798.15
775.414	2788.15
775.666	2518.15
775.917	2545.15
776.168	2597.15
776.419	2598.15
776.67	2539.15
776.921	2538.15
777.172	2627.15
777.423	2626.15
777.674	2640.15
777.925	2598.15
778.176	2533.15
778.427	2525.15
778.678	2435.15
778.929	2476.15
779.18	2580.15
779.431	2488.15
779.682	2503.15
779.933	2543.15
780.184	2549.15
780.435	2532.15
780.686	2474.15
780.937	2513.15
781.188	2557.15
781.439	2632.15
781.69	2569.15
781.941	2491.15
782.191	2484.15
782.442	2457.15
782.693	2390.15
782.944	2390.15
783.195	2457.15
783.446	2445.15
783.697	2443.15
783.948	2385.15
784.199	2432.15
784.449	2403.15
784.7	2384.15
784.951	2392.15
785.202	2570.15
785.453	2513.15
785.704	2310.15
785.954	2284.15
786.205	2357.15
786.456	2312.15
786.707	2210.15
786.958	2280.15
787.208	2416.15
787.459	2311.15
787.71	2289.15
787.961	2271.15
788.211	2348.15
788.462	2356.15
788.713	2295.15
788.964	2274.15
789.214	2373.15
789.465	2362.15
789.716	2285.15
789.967	2278.15
790.217	2287.15
790.468	2242.15
790.719	2148.15
790.969	2209.15
791.22	2286.15
791.471	2363.15
791.721	2345.15
791.972	2210.15
792.223	2293.15
792.473	2211.15
792.724	2191.15
792.975	2175.15
793.225	2236.15
793.476	2198.15
793.726	2157.15
793.977	2232.15
794.228	2353.15
794.478	2220.15
794.729	2109.15
794.979	2246.15
795.23	2263.15
795.481	2203.15
795.731	2091.15
795.982	2118.15
796.232	2115.15
796.483	2077.15
796.733	2049.15
796.984	2138.15
797.234	2201.15
797.485	2216.15
797.735	2050.15
797.986	2059.15
798.236	2173.15
798.487	2071.15
798.737	2058.15
798.988	2173.15
799.238	2239.15
799.489	2119.15
799.739	2033.15
799.99	2086.15
800.24	2183.15
800.491	2233.15
800.741	2088.15
800.991	2011.15
801.242	2073.15
801.492	2058.15
801.743	2014.15
801.993	2271.15
802.244	2463.15
802.494	2079.15
802.744	1997.15
802.995	2049.15
803.245	2072.15
803.495	2043.15
803.746	1989.15
803.996	2062.15
804.246	2057.15
804.497	2092.15
804.747	1948.15
804.997	2020.15
805.248	2004.15
805.498	1966.15
805.748	1956.15
805.999	1861.15
806.249	1953.15
806.499	1941.15
806.75	1856.15
807	1885.15
807.25	1989.15
807.5	1925.15
807.751	1933.15
808.001	1972.15
808.251	1974.15
808.501	2067.15
808.752	2022.15
809.002	1940.15
809.252	1963.15
809.502	1909.15
809.752	1834.15
810.003	1802.15
810.253	1892.15
810.503	1904.15
810.753	1947.15
811.003	1964.15
811.254	1994.15
811.504	1893.15
811.754	1858.15
812.004	1859.15
812.254	2080.15
812.504	1940.15
812.754	1832.15
813.005	1895.15
813.255	1992.15
813.505	1920.15
813.755	1815.15
814.005	1887.15
814.255	1879.15
814.505	1843.15
814.755	1745.15
815.005	1752.15
815.255	1861.15
815.505	1800.15
815.756	1831.15
816.006	1846.15
816.256	1814.15
816.506	1754.15
816.756	1678.15
817.006	1719.15
817.256	1814.15
817.506	1781.15
817.756	1741.15
818.006	1783.15
818.256	1826.15
818.506	1774.15
818.756	1662.15
819.006	1725.15
819.256	1837.15
819.506	1744.15
819.756	1657.15
820.006	1757.15
820.255	1808.15
820.505	1781.15
820.755	1662.15
821.005	1692.15
821.255	1809.15
821.505	1788.15
821.755	1723.15
822.005	1776.15
822.255	1830.15
822.505	1731.15
822.755	1745.15
823.004	1644.15
823.254	1686.15
823.504	1785.15
823.754	1759.15
824.004	1642.15
824.254	1741.15
824.504	1746.15
824.753	1752.15
825.003	1733.15
825.253	1813.15
825.503	1673.15
825.753	1602.15
826.002	1702.15
826.252	1904.15
826.502	1729.15
826.752	1625.15
827.002	1634.15
827.251	1755.15
827.501	1689.15
827.751	1613.15
828.001	1624.15
828.25	1688.15
828.5	1594.15
828.75	1556.15
829	1663.15
829.249	1771.15
829.499	1608.15
829.749	1582.15
829.998	1646.15
830.248	1658.15
830.498	1570.15
830.748	1574.15
830.997	1594.15
831.247	1665.15
831.497	1673.15
831.746	1596.15
831.996	1685.15
832.246	1781.15
832.495	1751.15
832.745	1501.15
832.994	1537.15
833.244	1690.15
833.494	1573.15
833.743	1470.15
833.993	1524.15
834.243	1603.15
834.492	1601.15
834.742	1586.15
834.991	1553.15
835.241	1720.15
835.49	1550.15
835.74	1438.15
835.99	1534.15
836.239	1642.15
836.489	1647.15
836.738	1541.15
836.988	1441.15
837.237	1564.15
837.487	1652.15
837.736	1526.15
837.986	1485.15
838.235	1544.15
838.485	1529.15
838.734	1483.15
838.984	1542.15
839.233	1543.15
839.483	1445.15
839.732	1381.15
839.982	1497.15
840.231	1569.15
840.481	1553.15
840.73	1421.15
840.979	1478.15
841.229	1462.15
841.478	1463.15
841.728	1371.15
841.977	1376.15
842.227	1422.15
842.476	1361.15
842.725	1335.15
842.975	1402.15
843.224	1498.15
843.474	1507.15
843.723	1396.15
843.972	1412.15
844.222	1444.15
844.471	1505.15
844.72	1384.15
844.97	1372.15
845.219	1477.15
845.468	1509.15
845.718	1426.15
845.967	1437.15
846.216	1461.15
846.466	1478.15
846.715	1354.15
846.964	1390.15
847.214	1402.15
847.463	1350.15
847.712	1358.15
847.961	1328.15
848.211	1387.15
848.46	1367.15
848.709	1346.15
848.958	1283.15
849.208	1374.15
849.457	1360.15
849.706	1362.15
849.955	1332.15
850.205	1330.15
850.454	1431.15
850.703	1449.15
850.952	1371.15
851.201	1425.15
851.451	1350.15
851.7	1372.15
851.949	1264.15
852.198	1344.15
852.447	1337.15
852.696	1266.15
852.946	1284.15
853.195	1378.15
853.444	1377.15
853.693	1209.15
853.942	1219.15
854.191	1311.15
854.44	1328.15
854.689	1270.15
854.939	1239.15
855.188	1193.15
855.437	1230.15
855.686	1226.15
855.935	1241.15
856.184	1313.15
856.433	1335.15
856.682	1272.15
856.931	1269.15
857.18	1298.15
857.429	1235.15
857.678	1207.15
857.927	1230.15
858.176	1251.15
858.425	1185.15
858.674	1108.15
858.924	1181.15
859.173	1201.15
859.422	1236.15
859.671	1119.15
859.92	1168.15
860.169	1189.15
860.417	1251.15
860.666	1192.15
860.915	1150.15
861.164	1186.15
861.413	1129.15
861.662	1052.15
861.911	1094.15
862.16	1233.15
862.409	1180.15
862.658	1040.15
862.907	1114.15
863.156	1198.15
863.405	1174.15
863.654	1067.15
863.903	1037.15
864.151	1143.15
864.4	1172.15
864.649	1110.15
864.898	1150.15
865.147	1216.15
865.396	1208.15
865.645	1050.15
865.894	1134.15
866.142	1275.15
866.391	1158.15
866.64	1022.15
866.889	1114.15
867.138	1265.15
867.387	1161.15
867.635	1066.15
867.884	1128.15
868.133	1191.15
868.382	1109.15
868.631	976.15
868.879	1022.15
869.128	1112.15
869.377	1084.15
869.626	1045.15
869.874	1053.15
870.123	1142.15
870.372	1089.15
870.621	974.15
870.869	1010.15
871.118	1123.15
871.367	1116.15
871.616	991.15
871.864	1092.15
872.113	1128.15
872.362	1085.15
872.61	1031.15
872.859	1106.15
873.108	1156.15
873.357	1026.15
873.605	913.15
873.854	921.15
874.103	987.15
874.351	1000.15
874.6	963.15
874.848	993.15
875.097	1041.15
875.346	1051.15
875.594	932.15
875.843	1036.15
876.092	1175.15
876.34	1061.15
876.589	958.15
876.837	853.15
877.086	951.15
877.335	1011.15
877.583	958.15
877.832	1000.15
878.08	1128.15
878.329	1021.15
878.578	912.15
878.826	922.15
879.075	1019.15
879.323	1013.15
879.572	921.15
879.82	1061.15
880.069	1029.15
880.317	1036.15
880.566	917.15
880.814	983.15
881.063	1086.15
881.311	996.15
881.56	996.15
881.808	938.15
882.057	994.15
882.305	972.15
882.554	983.15
882.802	896.15
883.051	918.15
883.299	924.15
883.548	876.15
883.796	931.15
884.045	939.15
884.293	878.15
884.541	784.15
884.79	795.15
885.038	878.15
885.287	886.15
885.535	886.15
885.783	917.15
886.032	856.15
886.28	829.15
886.529	796.15
886.777	869.15
887.025	1010.15
887.274	875.15
887.522	807.15
887.77	858.15
888.019	870.15
888.267	832.15
888.516	760.15
888.764	792.15
889.012	887.15
889.261	854.15
889.509	760.15
889.757	800.15
890.005	850.15
890.254	802.15
890.502	813.15
890.75	1009.15
890.999	1018.15
891.247	887.15
891.495	817.15
891.743	807.15
891.992	941.15
892.24	866.15
892.488	758.15
892.737	777.15
892.985	876.15
893.233	854.15
893.481	773.15
893.729	773.15
893.978	916.15
894.226	930.15
894.474	777.15
894.722	779.15
894.97	805.15
895.219	789.15
895.467	814.15
895.715	839.15
895.963	809.15
896.211	742.15
896.46	657.15
896.708	770.15
896.956	862.15
897.204	916.15
897.452	821.15
897.7	743.15
897.948	811.15
898.197	749.15
898.445	693.15
898.693	736.15
898.941	805.15
899.189	784.15
899.437	733.15
899.685	820.15
899.933	774.15
900.181	772.15
900.43	692.15
900.678	713.15
900.926	772.15
901.174	727.15
901.422	689.15
901.67	693.15
901.918	778.15
902.166	726.15
902.414	608.15
902.662	653.15
902.91	747.15
903.158	727.15
903.406	653.15
903.654	687.15
903.902	726.15
904.15	694.15
904.398	595.15
904.646	683.15
904.894	776.15
905.142	791.15
905.39	731.15
905.638	657.15
905.886	682.15
906.134	675.15
906.382	679.15
906.63	644.15
906.878	706.15
907.126	682.15
907.374	623.15
907.622	648.15
907.869	764.15
908.117	720.15
908.365	646.15
908.613	625.15
908.861	646.15
909.109	616.15
909.357	577.15
909.605	637.15
909.853	695.15
910.1	646.15
910.348	487.15
910.596	541.15
910.844	739.15
911.092	742.15
911.34	605.15
911.588	635.15
911.835	687.15
912.083	684.15
912.331	643.15
912.579	679.15
912.827	849.15
913.075	728.15
913.322	575.15
913.57	582.15
913.818	699.15
914.066	627.15
914.313	565.15
914.561	651.15
914.809	662.15
915.057	616.15
915.305	602.15
915.552	577.15
915.8	662.15
916.048	581.15
916.296	517.15
916.543	630.15
916.791	726.15
917.039	643.15
917.286	516.15
917.534	559.15
917.782	659.15
918.03	592.15
918.277	483.15
918.525	483.15
918.773	588.15
919.02	571.15
919.268	506.15
919.516	542.15
919.763	547.15
920.011	548.15
920.259	464.15
920.506	569.15
920.754	661.15
921.002	646.15
921.249	585.15
921.497	538.15
921.745	585.15
921.992	614.15
922.24	458.15
922.487	571.15
922.735	723.15
922.983	648.15
923.23	545.15
923.478	501.15
923.725	593.15
923.973	614.15
924.221	558.15
924.468	594.15
924.716	584.15
924.963	569.15
925.211	491.15
925.458	541.15
925.706	650.15
925.953	690.15
926.201	488.15
926.448	472.15
926.696	595.15
926.944	558.15
927.191	474.15
927.439	486.15
927.686	522.15
927.934	545.15
928.181	448.15
928.429	451.15
928.676	503.15
928.923	436.15
929.171	401.15
929.418	542.15
929.666	587.15
929.913	574.15
930.161	391.15
930.408	424.15
930.656	502.15
930.903	537.15
931.151	394.15
931.398	452.15
931.645	580.15
931.893	474.15
932.14	447.15
932.388	451.15
932.635	606.15
932.882	628.15
933.13	517.15
933.377	449.15
933.625	532.15
933.872	439.15
934.119	375.15
934.367	418.15
934.614	432.15
934.861	406.15
935.109	396.15
935.356	468.15
935.603	534.15
935.851	451.15
936.098	386.15
936.345	491.15
936.593	497.15
936.84	465.15
937.087	347.15
937.335	413.15
937.582	464.15
937.829	462.15
938.077	439.15
938.324	421.15
938.571	504.15
938.818	419.15
939.066	346.15
939.313	336.15
939.56	464.15
939.807	478.15
940.055	348.15
940.302	362.15
940.549	541.15
940.796	457.15
941.044	393.15
941.291	416.15
941.538	574.15
941.785	450.15
942.033	393.15
942.28	473.15
942.527	506.15
942.774	462.15
943.021	339.15
943.269	379.15
943.516	483.15
943.763	478.15
944.01	395.15
944.257	475.15
944.504	528.15
944.752	482.15
944.999	446.15
945.246	381.15
945.493	432.15
945.74	417.15
945.987	354.15
946.234	418.15
946.482	497.15
946.729	393.15
946.976	349.15
947.223	390.15
947.47	540.15
947.717	487.15
947.964	478.15
948.211	433.15
948.458	487.15
948.705	410.15
948.952	322.15
949.2	402.15
949.447	514.15
949.694	494.15
949.941	329.15
950.188	336.15
950.435	372.15
950.682	387.15
950.929	276.15
951.176	306.15
951.423	462.15
951.67	453.15
951.917	396.15
952.164	396.15
952.411	453.15
952.658	514.15
952.905	363.15
953.152	294.15
953.399	392.15
953.646	376.15
953.893	292.15
954.14	337.15
954.387	372.15
954.634	360.15
954.881	306.15
955.128	384.15
955.375	378.15
955.622	362.15
955.869	360.15
956.115	323.15
956.362	402.15
956.609	377.15
956.856	289.15
957.103	308.15
957.35	416.15
957.597	414.15
957.844	319.15
958.091	320.15
958.338	427.15
958.585	375.15
958.831	196.15
959.078	262.15
959.325	403.15
959.572	308.15
959.819	212.15
960.066	206.15
960.313	337.15
960.559	294.15
960.806	171.15
961.053	228.15
961.3	384.15
961.547	393.15
961.794	195.15
962.04	361.15
962.287	406.15
962.534	280.15
962.781	245.15
963.028	300.15
963.274	424.15
963.521	342.15
963.768	250.15
964.015	298.15
964.262	448.15
964.508	300.15
964.755	210.15
965.002	220.15
965.249	282.15
965.495	234.15
965.742	210.15
965.989	229.15
966.236	348.15
966.482	268.15
966.729	218.15
966.976	184.15
967.222	274.15
967.469	267.15
967.716	207.15
967.963	189.15
968.209	274.15
968.456	232.15
968.703	133.15
968.949	248.15
969.196	416.15
969.443	430.15
969.689	202.15
969.936	158.15
970.183	268.15
970.429	198.15
970.676	170.15
970.923	254.15
971.169	299.15
971.416	227.15
971.663	197.15
971.909	237.15
972.156	299.15
972.402	286.15
972.649	224.15
972.896	243.15
973.142	253.15
973.389	273.15
973.635	158.15
973.882	291.15
974.129	352.15
974.375	221.15
974.622	145.15
974.868	180.15
975.115	246.15
975.361	212.15
975.608	185.15
975.855	289.15
976.101	324.15
976.348	226.15
976.594	166.15
976.841	236.15
977.087	244.15
977.334	278.15
977.58	122.15
977.827	109.15
978.073	272.15
978.32	238.15
978.566	112.15
978.813	196.15
979.059	245.15
979.306	226.15
979.552	127.15
979.799	182.15
980.045	190.15
980.292	195.15
980.538	116.15
980.785	118.15
981.031	157.15
981.278	138.15
981.524	77.15
981.771	222.15
982.017	342.15
982.263	254.15
982.51	127.15
982.756	204.15
983.003	258.15
983.249	211.15
983.495	118.15
983.742	115.15
983.988	183.15
984.235	209.15
984.481	113.15
984.727	122.15
984.974	247.15
985.22	240.15
985.467	166.15
985.713	153.15
985.959	266.15
986.206	240.15
986.452	143.15
986.698	191.15
986.945	204.15
987.191	250.15
987.437	227.15
987.684	193.15
987.93	364.15
988.176	265.15
988.423	74.15
988.669	155.15
988.915	332.15
989.162	176.15
989.408	69.15
989.654	136.15
989.901	169.15
990.147	175.15
990.393	165.15
990.639	222.15
990.886	249.15
991.132	302.15
991.378	216.15
991.625	337.15
991.871	309.15
992.117	238.15
992.363	166.15
992.61	160.15
992.856	286.15
993.102	161.15
993.348	101.15
993.594	146.15
993.841	176.15
994.087	294.15
994.333	166.15
994.579	146.15
994.826	190.15
995.072	208.15
995.318	22.15
995.564	70.15
995.81	208.15
996.057	154.15
996.303	49.15
996.549	62.15
996.795	155.15
997.041	162.15
997.287	116.15
997.534	123.15
997.78	173.15
998.026	181.15
998.272	64.15
998.518	59.15
998.764	201.15
999.01	236.15
999.256	132.15
999.503	97.15
999.749	113.15
999.995	91.15
1000.241	65.15
1000.487	133.15
1000.733	168.15
1000.979	130.15
1001.225	99.15
1001.471	166.15
1001.718	235.15
1001.964	260.15
1002.21	77.15
1002.456	101.15
1002.702	250.15
1002.948	165.15
1003.194	93.15
1003.44	69.15
1003.686	151.15
1003.932	106.15
1004.178	65.15
1004.424	130.15
1004.67	257.15
1004.916	226.15
1005.162	114.15
1005.408	90.15
1005.654	217.15
1005.9	71.15
1006.146	18.15
1006.392	89.15
1006.638	176.15
1006.884	140.15
1007.13	61.15
1007.376	20.15
1007.622	196.15
1007.868	220.15
1008.114	75.15
1008.36	138.15
1008.606	176.15
1008.852	218.15
1009.098	143.15
1009.344	167.15
1009.59	147.15
1009.836	13.15
1010.082	-46.85
1010.328	57.15
1010.574	140.15
1010.82	41.15
1011.065	-15.85
1011.311	7.15
1011.557	115.15
1011.803	82.15
1012.049	23.15
1012.295	74.15
1012.541	123.15
1012.787	124.15
1013.033	-9.85
1013.278	-39.85
1013.524	108.15
1013.77	189.15
1014.016	74.15
1014.262	73.15
1014.508	184.15
1014.754	41.15
1015	-9.85
1015.245	145.15
1015.491	169.15
1015.737	132.15
1015.983	15.15
1016.229	-23.85
1016.475	90.15
1016.72	214.15
1016.966	233.15
1017.212	120.15
1017.458	186.15
1017.704	95.15
1017.949	-16.85
1018.195	132.15
1018.441	220.15
1018.687	192.15
1018.933	30.15
1019.178	27.15
1019.424	205.15
1019.67	199.15
1019.916	1.15
1020.161	39.15
1020.407	113.15
1020.653	59.15
1020.899	-5.85
1021.144	59.15
1021.39	128.15
1021.636	15.15
1021.882	-58.85
1022.127	50.15
1022.373	198.15
1022.619	146.15
1022.865	35.15
1023.11	33.15
1023.356	159.15
1023.602	74.15
1023.847	30.15
1024.093	76.15
1024.339	40.15
1024.584	19.15
1024.83	13.15
1025.076	21.15
1025.321	145.15
1025.567	105.15
1025.813	-12.85
1026.058	69.15
1026.304	132.15
1026.55	55.15
1026.795	31.15
1027.041	39.15
1027.287	89.15
1027.532	113.15
1027.778	80.15
1028.024	59.15
1028.269	104.15
1028.515	14.15
1028.76	-37.85
1029.006	44.15
1029.252	142.15
1029.497	46.15
1029.743	28.15
1029.989	-27.85
1030.234	112.15
1030.48	181.15
1030.725	-11.85
1030.971	17.15
1031.216	154.15
1031.462	72.15
1031.708	-67.85
1031.953	-34.85
1032.199	57.15
1032.444	64.15
1032.69	-17.85
1032.935	-2.85
1033.181	136.15
1033.426	26.15
1033.672	-115.85
1033.918	-69.85
1034.163	41.15
1034.409	18.15
1034.654	-11.85
1034.9	98.15
1035.145	132.15
1035.391	57.15
1035.636	-57.85
1035.882	14.15
1036.127	9.15
1036.373	-9.85
1036.618	-102.85
1036.864	-16.85
1037.109	121.15
1037.355	33.15
1037.6	-52.85
1037.845	-10.85
1038.091	181.15
1038.336	156.15
1038.582	164.15
1038.827	242.15
1039.073	82.15
1039.318	-3.85
1039.564	-102.85
1039.809	-42.85
1040.055	142.15
1040.3	133.15
1040.545	-35.85
1040.791	-38.85
1041.036	24.15
1041.282	60.15
1041.527	121.15
1041.772	-74.85
1042.018	-10.85
1042.263	34.15
1042.509	-103.85
1042.754	-65.85
1042.999	65.15
1043.245	36.15
1043.49	-131.85
1043.736	-60.85
1043.981	21.15
1044.226	28.15
1044.472	15.15
1044.717	26.15
1044.962	125.15
1045.208	38.15
1045.453	-174.85
1045.698	-90.85
1045.944	100.15
1046.189	49.15
1046.434	-48.85
1046.68	-19.85
1046.925	159.15
1047.17	12.15
1047.416	-164.85
1047.661	-73.85
1047.906	71.15
1048.152	57.15
1048.397	-32.85
1048.642	-46.85
1048.887	125.15
1049.133	132.15
1049.378	-47.85
1049.623	-54.85
1049.869	69.15
1050.114	9.15
1050.359	-73.85
1050.604	1.15
1050.85	148.15
1051.095	19.15
1051.34	-87.85
1051.585	-11.85
1051.831	166.15
1052.076	11.15
1052.321	-175.85
1052.566	-50.85
1052.812	119.15
1053.057	18.15
1053.302	-52.85
1053.547	24.15
1053.792	101.15
1054.038	91.15
1054.283	-112.85
1054.528	-26.85
1054.773	42.15
1055.018	30.15
1055.264	-82.85
1055.509	-95.85
1055.754	13.15
1055.999	-36.85
1056.244	-109.85
1056.49	-57.85
1056.735	45.15
1056.98	-11.85
1057.225	-123.85
1057.47	70.15
1057.715	8.15
1057.96	-61.85
1058.206	-116.85
1058.451	-14.85
1058.696	123.15
1058.941	54.15
1059.186	-110.85
1059.431	-85.85
1059.676	122.15
1059.922	56.15
1060.167	128.15
1060.412	273.15
1060.657	83.15
1060.902	27.15
1061.147	-157.85
1061.392	-73.85
1061.637	63.15
1061.882	-5.85
1062.127	-163.85
1062.373	-140.85
1062.618	133.15
1062.863	138.15
1063.108	-60.85
1063.353	-90.85
1063.598	3.15
1063.843	-28.85
1064.088	-113.85
1064.333	-114.85
1064.578	46.15
1064.823	71.15
1065.068	-165.85
1065.313	-90.85
1065.558	49.15
1065.803	62.15
1066.048	-122.85
1066.293	-141.85
1066.538	73.15
1066.783	11.15
1067.028	-162.85
1067.273	-135.85
1067.518	50.15
1067.763	-12.85
1068.008	-167.85
1068.253	-98.85
1068.498	82.15
1068.743	19.15
1068.988	-147.85
1069.233	-128.85
1069.478	72.15
1069.723	143.15
1069.968	-70.85
1070.213	-23.85
1070.458	70.15
1070.703	-20.85
1070.948	-182.85
1071.193	-69.85
1071.438	60.15
1071.683	80.15
1071.928	-45.85
1072.173	-55.85
1072.418	1.15
1072.663	-25.85
1072.908	-155.85
1073.152	-94.85
1073.397	81.15
1073.642	-33.85
1073.887	-75.85
1074.132	54.15
1074.377	41.15
1074.622	-4.85
1074.867	-129.85
1075.112	-63.85
1075.357	117.15
1075.601	-16.85
1075.846	-71.85
1076.091	21.15
1076.336	68.15
1076.581	-67.85
1076.826	-149.85
1077.071	-64.85
1077.315	174.15
1077.56	101.15
1077.805	-98.85
1078.05	-73.85
1078.295	-26.85
1078.54	-61.85
1078.785	-172.85
1079.029	-125.85
1079.274	51.15
1079.519	-74.85
1079.764	-174.85
1080.009	-51.85
1080.253	24.15
1080.498	-52.85
1080.743	-208.85
1080.988	-71.85
1081.233	141.15
1081.478	56.15
1081.722	-123.85
1081.967	-1.85
1082.212	142.15
1082.457	21.15
1082.701	-109.85
1082.946	-68.85
1083.191	48.15
1083.436	-73.85
1083.681	-193.85
1083.925	-83.85
1084.17	13.15
1084.415	39.15
1084.66	-172.85
1084.904	-91.85
1085.149	5.15
1085.394	-31.85
1085.639	-207.85
1085.883	-95.85
1086.128	140.15
1086.373	148.15
1086.617	-79.85
1086.862	-131.85
1087.107	-15.85
1087.352	-65.85
1087.596	-141.85
1087.841	-21.85
1088.086	32.15
1088.33	1.15
1088.575	-215.85
1088.82	-87.85
1089.064	73.15
1089.309	-78.85
1089.554	-170.85
1089.798	-129.85
1090.043	43.15
1090.288	-9.85
1090.533	-194.85
1090.777	-117.85
1091.022	31.15
1091.266	41.15
1091.511	-122.85
1091.756	-47.85
1092	106.15
1092.245	89.15
1092.49	-144.85
1092.734	-103.85
1092.979	80.15
1093.224	-32.85
1093.468	-163.85
1093.713	-81.85
1093.957	4.15
1094.202	-55.85
1094.447	-223.85
1094.691	-89.85
1094.936	41.15
1095.181	14.15
1095.425	-185.85
1095.67	-152.85
1095.914	13.15
1096.159	-4.85
1096.403	-158.85
1096.648	-74.85
1096.893	58.15
1097.137	-79.85
1097.382	-221.85
1097.626	-149.85
1097.871	10.15
1098.115	-51.85
1098.36	-212.85
1098.605	-111.85
1098.849	-27.85
1099.094	-111.85
1099.338	-205.85
1099.583	-104.85
1099.827	115.15
1100.072	21.15
1100.316	-173.85
1100.561	-101.85
1100.805	59.15
1101.05	17.15
1101.294	-187.85
1101.539	-153.85
1101.783	-4.85
1102.028	-4.85
1102.273	-161.85
1102.517	-102.85
1102.761	35.15
1103.006	-77.85
1103.25	-280.85
1103.495	-175.85
1103.739	33.15
1103.984	80.15
1104.228	-103.85
1104.473	-31.85
1104.717	29.15
1104.962	-11.85
1105.206	-135.85
1105.451	-153.85
1105.695	20.15
1105.94	-3.85
1106.184	-156.85
1106.429	-107.85
1106.673	9.15
1106.917	56.15
1107.162	-165.85
1107.406	-28.85
1107.651	120.15
1107.895	-94.85
1108.14	-191.85
1108.384	-88.85
1108.628	104.15
1108.873	95.15
1109.117	-136.85
1109.362	-126.85
1109.606	-29.85
1109.85	-34.85
1110.095	-163.85
1110.339	-87.85
1110.584	92.15
1110.828	38.15
1111.072	-75.85
1111.317	-114.85
1111.561	-20.85
1111.806	-32.85
1112.05	-183.85
1112.294	-101.85
1112.539	16.15
1112.783	-14.85
1113.027	-123.85
1113.272	-118.85
1113.516	-37.85
1113.76	-43.85
1114.005	-136.85
1114.249	-67.85
1114.493	73.15
1114.738	91.15
1114.982	-51.85
1115.226	-84.85
1115.471	0.15
1115.715	-30.85
1115.959	-186.85
1116.204	-177.85
1116.448	-4.85
1116.692	-90.85
1116.937	-179.85
1117.181	-26.85
1117.425	-23.85
1117.67	-84.85
1117.914	-162.85
1118.158	-103.85
1118.402	116.15
1118.647	46.15
1118.891	-102.85
1119.135	-36.85
1119.38	104.15
1119.624	20.15
1119.868	-148.85
1120.112	-145.85
1120.357	-45.85
1120.601	-113.85
1120.845	-219.85
1121.089	-138.85
1121.334	28.15
