Data from HR4C21111__7__09-41-00-963.txt Node

Date: Mon Feb 22 09:41:00 IST 2021
User: Kapil
Spectrometer: HR4C2111
Trigger mode: 4
Integration Time (sec): 2.300000E0
Scans to average: 1
Electric dark correction enabled: true
Nonlinearity correction enabled: false
Boxcar width: 0
XAxis mode: Wavelengths
Number of Pixels in Spectrum: 3648
>>>>>Begin Spectral Data<<<<<
189.472	-443.46
189.745	-443.46
190.017	-443.46
190.289	-464.46
190.561	-304.46
190.834	-31.46
191.106	-115.46
191.378	11.54
191.65	11.54
191.923	-147.46
192.195	-105.46
192.467	140.54
192.739	115.54
193.011	-10.46
193.284	74.54
193.556	158.54
193.828	-7.46
194.1	-94.46
194.372	-121.46
194.644	57.54
194.916	62.54
195.188	-159.46
195.46	-81.46
195.732	54.54
196.004	-11.46
196.276	-103.46
196.548	-55.46
196.82	90.54
197.092	79.54
197.364	-129.46
197.636	-99.46
197.908	17.54
198.18	-46.46
198.452	-88.46
198.724	-39.46
198.996	45.54
199.268	74.54
199.54	-23.46
199.811	-104.46
200.083	106.54
200.355	23.54
200.627	-184.46
200.899	-72.46
201.171	61.54
201.442	-46.46
201.714	-167.46
201.986	-92.46
202.258	59.54
202.529	115.54
202.801	-3.46
203.073	66.54
203.345	193.54
203.616	3.54
203.888	-141.46
204.16	-139.46
204.431	76.54
204.703	-5.46
204.974	-146.46
205.246	4.54
205.518	174.54
205.789	-2.46
206.061	-117.46
206.332	-95.46
206.604	10.54
206.876	84.54
207.147	132.54
207.419	19.54
207.69	125.54
207.962	-32.46
208.233	-186.46
208.505	-2.46
208.776	187.54
209.047	87.54
209.319	-124.46
209.59	-74.46
209.862	149.54
210.133	42.54
210.404	-150.46
210.676	-119.46
210.947	77.54
211.219	78.54
211.49	-119.46
211.761	-56.46
212.033	22.54
212.304	-38.46
212.575	-181.46
212.846	-83.46
213.118	37.54
213.389	-48.46
213.66	-103.46
213.931	-36.46
214.203	30.54
214.474	-31.46
214.745	-121.46
215.016	146.54
215.287	440.54
215.559	73.54
215.83	-125.46
216.101	-56.46
216.372	9.54
216.643	74.54
216.914	-0.46
217.185	-70.46
217.456	162.54
217.727	22.54
217.998	-154.46
218.269	-59.46
218.54	35.54
218.811	-4.46
219.082	-103.46
219.353	-77.46
219.624	-14.46
219.895	-27.46
220.166	-122.46
220.437	-117.46
220.708	108.54
220.979	-0.46
221.25	-151.46
221.521	-91.46
221.792	41.54
222.063	85.54
222.334	31.54
222.604	189.54
222.875	171.54
223.146	88.54
223.417	-180.46
223.688	-26.46
223.958	140.54
224.229	-31.46
224.5	-180.46
224.771	-75.46
225.041	84.54
225.312	46.54
225.583	-105.46
225.854	-58.46
226.124	84.54
226.395	-15.46
226.666	-136.46
226.936	-102.46
227.207	63.54
227.478	-50.46
227.748	-96.46
228.019	40.54
228.289	243.54
228.56	-24.46
228.831	-48.46
229.101	44.54
229.372	77.54
229.642	-26.46
229.913	-169.46
230.183	-121.46
230.454	-0.46
230.724	6.54
230.995	-101.46
231.265	-56.46
231.536	70.54
231.806	47.54
232.076	-98.46
232.347	-111.46
232.617	39.54
232.888	35.54
233.158	-51.46
233.428	-117.46
233.699	-5.46
233.969	-51.46
234.239	-156.46
234.51	-96.46
234.78	40.54
235.05	-17.46
235.321	-112.46
235.591	-67.46
235.861	62.54
236.131	-41.46
236.402	-166.46
236.672	-101.46
236.942	33.54
237.212	44.54
237.483	-63.46
237.753	6.54
238.023	157.54
238.293	20.54
238.563	-74.46
238.833	-93.46
239.103	64.54
239.374	-14.46
239.644	-136.46
239.914	-27.46
240.184	131.54
240.454	-1.46
240.724	-153.46
240.994	-48.46
241.264	37.54
241.534	66.54
241.804	-3.46
242.074	-85.46
242.344	-28.46
242.614	-51.46
242.884	-176.46
243.154	-119.46
243.424	36.54
243.694	80.54
243.964	-68.46
244.234	-72.46
244.503	120.54
244.773	17.54
245.043	-208.46
245.313	-140.46
245.583	112.54
245.853	84.54
246.123	-165.46
246.392	-93.46
246.662	-12.46
246.932	-26.46
247.202	-167.46
247.471	-52.46
247.741	248.54
248.011	94.54
248.281	-151.46
248.55	-97.46
248.82	75.54
249.09	11.54
249.359	-89.46
249.629	-83.46
249.899	36.54
250.168	49.54
250.438	-30.46
250.708	-114.46
250.977	73.54
251.247	51.54
251.516	-115.46
251.786	-55.46
252.055	125.54
252.325	19.54
252.595	-112.46
252.864	-57.46
253.134	54.54
253.403	-40.46
253.673	-174.46
253.942	-115.46
254.212	41.54
254.481	11.54
254.75	-138.46
255.02	-79.46
255.289	90.54
255.559	-1.46
255.828	-124.46
256.097	-23.46
256.367	51.54
256.636	-36.46
256.906	-130.46
257.175	-15.46
257.444	234.54
257.714	50.54
257.983	-86.46
258.252	-42.46
258.521	5.54
258.791	39.54
259.06	-111.46
259.329	-39.46
259.598	87.54
259.868	4.54
260.137	-108.46
260.406	6.54
260.675	92.54
260.944	33.54
261.214	-115.46
261.483	-49.46
261.752	169.54
262.021	9.54
262.29	-154.46
262.559	-105.46
262.828	37.54
263.097	-17.46
263.366	-197.46
263.635	-86.46
263.905	133.54
264.174	16.54
264.443	-206.46
264.712	-94.46
264.981	32.54
265.25	-37.46
265.519	-136.46
265.788	-132.46
266.057	24.54
266.325	47.54
266.594	-51.46
266.863	-103.46
267.132	22.54
267.401	-3.46
267.67	-192.46
267.939	-128.46
268.208	43.54
268.477	76.54
268.745	-122.46
269.014	-99.46
269.283	141.54
269.552	50.54
269.821	-104.46
270.089	3.54
270.358	12.54
270.627	-35.46
270.896	-149.46
271.164	-153.46
271.433	21.54
271.702	82.54
271.971	-138.46
272.239	-124.46
272.508	35.54
272.777	-17.46
273.045	-18.46
273.314	-26.46
273.583	112.54
273.851	11.54
274.12	-151.46
274.388	-136.46
274.657	-7.46
274.926	-4.46
275.194	-169.46
275.463	-67.46
275.731	16.54
276	157.54
276.268	374.54
276.537	-90.46
276.805	37.54
277.074	47.54
277.342	-171.46
277.611	-107.46
277.879	100.54
278.148	35.54
278.416	-120.46
278.684	-97.46
278.953	-15.46
279.221	-35.46
279.49	-184.46
279.758	-101.46
280.026	2.54
280.295	7.54
280.563	-98.46
280.831	682.54
281.1	1740.54
281.368	198.54
281.636	-89.46
281.904	-107.46
282.173	-0.46
282.441	-42.46
282.709	-85.46
282.977	33.54
283.246	55.54
283.514	-24.46
283.782	-54.46
284.05	22.54
284.318	77.54
284.587	-12.46
284.855	-119.46
285.123	-39.46
285.391	83.54
285.659	60.54
285.927	-136.46
286.195	-55.46
286.463	69.54
286.732	3.54
287	-108.46
287.268	-47.46
287.536	39.54
287.804	-26.46
288.072	-126.46
288.34	-71.46
288.608	86.54
288.876	-20.46
289.144	-101.46
289.412	-2.46
289.68	54.54
289.948	-25.46
290.215	-106.46
290.483	-82.46
290.751	98.54
291.019	93.54
291.287	-163.46
291.555	-101.46
291.823	36.54
292.091	-14.46
292.358	-89.46
292.626	-26.46
292.894	83.54
293.162	56.54
293.43	-116.46
293.697	-88.46
293.965	36.54
294.233	-45.46
294.501	-172.46
294.768	-68.46
295.036	78.54
295.304	43.54
295.572	-118.46
295.839	-93.46
296.107	128.54
296.375	1.54
296.642	-141.46
296.91	-107.46
297.178	65.54
297.445	189.54
297.713	87.54
297.98	-72.46
298.248	-18.46
298.516	-40.46
298.783	-115.46
299.051	-114.46
299.318	14.54
299.586	-29.46
299.853	-110.46
300.121	-108.46
300.388	36.54
300.656	-3.46
300.923	-142.46
301.191	-37.46
301.458	49.54
301.726	-4.46
301.993	-141.46
302.26	-84.46
302.528	50.54
302.795	12.54
303.063	-59.46
303.33	-43.46
303.597	35.54
303.865	27.54
304.132	-128.46
304.399	-111.46
304.667	-20.46
304.934	18.54
305.201	-111.46
305.469	-20.46
305.736	57.54
306.003	46.54
306.27	-57.46
306.538	-104.46
306.805	-11.46
307.072	-29.46
307.339	-80.46
307.606	-34.46
307.874	171.54
308.141	64.54
308.408	-123.46
308.675	-100.46
308.942	-35.46
309.209	-68.46
309.477	-132.46
309.744	-96.46
310.011	29.54
310.278	38.54
310.545	-39.46
310.812	-47.46
311.079	145.54
311.346	204.54
311.613	59.54
311.88	-32.46
312.147	-63.46
312.414	-47.46
312.681	-108.46
312.948	-33.46
313.215	116.54
313.482	82.54
313.749	-97.46
314.016	-191.46
314.283	-45.46
314.55	57.54
314.817	-107.46
315.083	-125.46
315.35	-81.46
315.617	-122.46
315.884	-135.46
316.151	69.54
316.418	164.54
316.684	-17.46
316.951	-190.46
317.218	-87.46
317.485	9.54
317.752	-59.46
318.018	-121.46
318.285	-20.46
318.552	24.54
318.819	-50.46
319.085	-125.46
319.352	-45.46
319.619	44.54
319.885	-29.46
320.152	-196.46
320.419	-101.46
320.685	28.54
320.952	-36.46
321.219	-75.46
321.485	71.54
321.752	21.54
322.019	-49.46
322.285	36.54
322.552	-10.46
322.818	123.54
323.085	-25.46
323.351	-123.46
323.618	-22.46
323.884	39.54
324.151	-61.46
324.417	-35.46
324.684	-76.46
324.95	-57.46
325.217	-138.46
325.483	-172.46
325.75	-18.46
326.016	8.54
326.283	-19.46
326.549	-185.46
326.815	-80.46
327.082	101.54
327.348	6.54
327.615	-104.46
327.881	-25.46
328.147	125.54
328.414	141.54
328.68	24.54
328.946	-33.46
329.212	31.54
329.479	6.54
329.745	-96.46
330.011	-91.46
330.278	28.54
330.544	-30.46
330.81	-26.46
331.076	-31.46
331.342	-35.46
331.609	-29.46
331.875	-79.46
332.141	-77.46
332.407	21.54
332.673	-2.46
332.94	-24.46
333.206	-51.46
333.472	56.54
333.738	78.54
334.004	-127.46
334.27	-22.46
334.536	12.54
334.802	-26.46
335.068	-72.46
335.334	19.54
335.6	39.54
335.866	-12.46
336.132	-152.46
336.398	-91.46
336.664	-19.46
336.93	-34.46
337.196	-87.46
337.462	-11.46
337.728	34.54
337.994	-40.46
338.26	-90.46
338.526	-35.46
338.792	-57.46
339.058	-52.46
339.324	-153.46
339.59	-22.46
339.856	51.54
340.121	-53.46
340.387	-121.46
340.653	78.54
340.919	141.54
341.185	63.54
341.45	-70.46
341.716	10.54
341.982	105.54
342.248	-45.46
342.514	-71.46
342.779	18.54
343.045	39.54
343.311	-15.46
343.576	-92.46
343.842	-33.46
344.108	143.54
344.374	22.54
344.639	-108.46
344.905	-66.46
345.171	61.54
345.436	-66.46
345.702	-98.46
345.967	56.54
346.233	99.54
346.499	25.54
346.764	-164.46
347.03	-76.46
347.295	-32.46
347.561	11.54
347.826	-40.46
348.092	-114.46
348.357	-9.46
348.623	-12.46
348.888	-126.46
349.154	-81.46
349.419	34.54
349.685	9.54
349.95	-63.46
350.216	-42.46
350.481	69.54
350.747	-30.46
351.012	-146.46
351.277	-79.46
351.543	50.54
351.808	3.54
352.074	-168.46
352.339	-104.46
352.604	54.54
352.87	18.54
353.135	-103.46
353.4	-61.46
353.666	14.54
353.931	19.54
354.196	-115.46
354.461	-99.46
354.727	55.54
354.992	16.54
355.257	-124.46
355.522	-21.46
355.788	13.54
356.053	85.54
356.318	-42.46
356.583	-67.46
356.848	127.54
357.113	232.54
357.379	-38.46
357.644	-74.46
357.909	122.54
358.174	153.54
358.439	-82.46
358.704	-25.46
358.969	82.54
359.234	96.54
359.499	-72.46
359.765	7.54
360.03	120.54
360.295	115.54
360.56	-44.46
360.825	25.54
361.09	223.54
361.355	49.54
361.62	11.54
361.885	54.54
362.15	41.54
362.415	64.54
362.679	-6.46
362.944	147.54
363.209	149.54
363.474	157.54
363.739	110.54
364.004	31.54
364.269	79.54
364.534	132.54
364.799	90.54
365.063	111.54
365.328	200.54
365.593	207.54
365.858	89.54
366.123	92.54
366.387	214.54
366.652	156.54
366.917	51.54
367.182	119.54
367.447	260.54
367.711	223.54
367.976	152.54
368.241	236.54
368.505	295.54
368.77	187.54
369.035	172.54
369.299	236.54
369.564	264.54
369.829	218.54
370.093	179.54
370.358	188.54
370.623	299.54
370.887	322.54
371.152	164.54
371.416	242.54
371.681	305.54
371.946	226.54
372.21	217.54
372.475	341.54
372.739	366.54
373.004	338.54
373.268	321.54
373.533	367.54
373.797	434.54
374.062	436.54
374.326	257.54
374.591	341.54
374.855	463.54
375.12	393.54
375.384	250.54
375.648	356.54
375.913	513.54
376.177	539.54
376.442	392.54
376.706	433.54
376.97	561.54
377.235	527.54
377.499	510.54
377.763	547.54
378.028	545.54
378.292	583.54
378.556	524.54
378.821	461.54
379.085	567.54
379.349	521.54
379.614	477.54
379.878	611.54
380.142	789.54
380.406	689.54
380.671	702.54
380.935	858.54
381.199	978.54
381.463	868.54
381.727	797.54
381.991	762.54
382.256	858.54
382.52	811.54
382.784	836.54
383.048	987.54
383.312	915.54
383.576	895.54
383.84	813.54
384.104	881.54
384.369	978.54
384.633	932.54
384.897	838.54
385.161	963.54
385.425	1112.54
385.689	1061.54
385.953	1012.54
386.217	1035.54
386.481	1147.54
386.745	1175.54
387.009	1144.54
387.273	1128.54
387.537	1196.54
387.801	1217.54
388.064	1192.54
388.328	1295.54
388.592	1354.54
388.856	1323.54
389.12	1268.54
389.384	1363.54
389.648	1408.54
389.912	1479.54
390.176	1478.54
390.439	1576.54
390.703	1449.54
390.967	1452.54
391.231	1384.54
391.495	1433.54
391.758	1547.54
392.022	1590.54
392.286	1480.54
392.55	1522.54
392.813	1623.54
393.077	1689.54
393.341	1627.54
393.605	1740.54
393.868	1726.54
394.132	1727.54
394.396	1676.54
394.659	1816.54
394.923	1804.54
395.187	1734.54
395.45	1755.54
395.714	1812.54
395.978	1855.54
396.241	1895.54
396.505	1840.54
396.768	1911.54
397.032	1991.54
397.295	2019.54
397.559	1956.54
397.823	1929.54
398.086	2081.54
398.35	2037.54
398.613	1969.54
398.877	2075.54
399.14	2221.54
399.404	2280.54
399.667	2177.54
399.931	2102.54
400.194	2210.54
400.457	2183.54
400.721	2202.54
400.984	2323.54
401.248	2278.54
401.511	2258.54
401.775	2162.54
402.038	2200.54
402.301	2453.54
402.565	2438.54
402.828	2230.54
403.091	2318.54
403.355	2500.54
403.618	2485.54
403.881	2474.54
404.145	2536.54
404.408	2587.54
404.671	2512.54
404.934	2558.54
405.198	2605.54
405.461	2632.54
405.724	2688.54
405.987	2688.54
406.251	2769.54
406.514	2878.54
406.777	2734.54
407.04	2663.54
407.303	2634.54
407.567	2802.54
407.83	2902.54
408.093	2730.54
408.356	2855.54
408.619	2913.54
408.882	2953.54
409.145	2895.54
409.408	2868.54
409.672	2999.54
409.935	2909.54
410.198	2788.54
410.461	2872.54
410.724	3118.54
410.987	3071.54
411.25	2895.54
411.513	3004.54
411.776	3074.54
412.039	2954.54
412.302	2944.54
412.565	3021.54
412.828	3066.54
413.091	3072.54
413.354	3002.54
413.617	3003.54
413.879	3079.54
414.142	3070.54
414.405	2898.54
414.668	2965.54
414.931	3080.54
415.194	3070.54
415.457	2951.54
415.72	3008.54
415.983	3026.54
416.245	3094.54
416.508	2984.54
416.771	2903.54
417.034	3015.54
417.297	2999.54
417.559	2964.54
417.822	2963.54
418.085	3052.54
418.348	3059.54
418.61	2924.54
418.873	2923.54
419.136	2967.54
419.399	2975.54
419.661	2992.54
419.924	2933.54
420.187	3028.54
420.449	3044.54
420.712	3006.54
420.975	3018.54
421.237	3094.54
421.5	3080.54
421.762	3131.54
422.025	3146.54
422.288	3249.54
422.55	3118.54
422.813	3032.54
423.075	3102.54
423.338	3177.54
423.601	3217.54
423.863	3189.54
424.126	3252.54
424.388	3322.54
424.651	3290.54
424.913	3267.54
425.176	3286.54
425.438	3280.54
425.701	3317.54
425.963	3233.54
426.225	3250.54
426.488	3312.54
426.75	3335.54
427.013	3317.54
427.275	3344.54
427.538	3371.54
427.8	3416.54
428.062	3324.54
428.325	3319.54
428.587	3395.54
428.849	3423.54
429.112	3442.54
429.374	3404.54
429.636	3438.54
429.899	3578.54
430.161	3447.54
430.423	3500.54
430.686	3610.54
430.948	3578.54
431.21	3416.54
431.472	3375.54
431.735	3534.54
431.997	3580.54
432.259	3554.54
432.521	3430.54
432.783	3567.54
433.046	3587.54
433.308	3463.54
433.57	3486.54
433.832	3763.54
434.094	3556.54
434.356	3421.54
434.618	3558.54
434.881	3692.54
435.143	3731.54
435.405	3688.54
435.667	3604.54
435.929	3654.54
436.191	3655.54
436.453	3597.54
436.715	3711.54
436.977	3839.54
437.239	3894.54
437.501	3781.54
437.763	3765.54
438.025	3887.54
438.287	3821.54
438.549	3801.54
438.811	3781.54
439.073	3790.54
439.335	3814.54
439.597	3770.54
439.859	3752.54
440.121	3889.54
440.383	3778.54
440.645	3751.54
440.907	3831.54
441.168	3846.54
441.43	3822.54
441.692	3784.54
441.954	3871.54
442.216	3918.54
442.478	3874.54
442.74	3776.54
443.001	3942.54
443.263	4070.54
443.525	3895.54
443.787	3796.54
444.048	3802.54
444.31	3840.54
444.572	3900.54
444.834	3859.54
445.095	3844.54
445.357	4032.54
445.619	3817.54
445.881	3715.54
446.142	3831.54
446.404	3865.54
446.666	3870.54
446.927	3836.54
447.189	3954.54
447.451	4031.54
447.712	3919.54
447.974	3742.54
448.235	3820.54
448.497	3914.54
448.759	3815.54
449.02	3823.54
449.282	3809.54
449.543	3947.54
449.805	3951.54
450.066	3723.54
450.328	3865.54
450.59	4068.54
450.851	3847.54
451.113	3728.54
451.374	3727.54
451.636	3993.54
451.897	4026.54
452.158	3887.54
452.42	3953.54
452.681	4016.54
452.943	3854.54
453.204	3852.54
453.466	3794.54
453.727	3811.54
453.988	3901.54
454.25	3810.54
454.511	3844.54
454.773	3913.54
455.034	4040.54
455.295	3792.54
455.557	3938.54
455.818	4023.54
456.079	3986.54
456.341	4040.54
456.602	4067.54
456.863	4126.54
457.124	3992.54
457.386	3821.54
457.647	3831.54
457.908	3916.54
458.169	4059.54
458.431	3942.54
458.692	4017.54
458.953	4045.54
459.214	4032.54
459.476	4120.54
459.737	4241.54
459.998	4241.54
460.259	4118.54
460.52	4104.54
460.781	4242.54
461.043	4391.54
461.304	4244.54
461.565	4102.54
461.826	4168.54
462.087	4309.54
462.348	4442.54
462.609	4412.54
462.87	4374.54
463.131	4262.54
463.392	4474.54
463.653	4464.54
463.914	4469.54
464.175	4506.54
464.436	4565.54
464.697	4556.54
464.958	4404.54
465.219	4497.54
465.48	4553.54
465.741	4603.54
466.002	4494.54
466.263	4669.54
466.524	4684.54
466.785	4595.54
467.046	4629.54
467.307	4827.54
467.568	4890.54
467.829	4822.54
468.089	4844.54
468.35	4934.54
468.611	4822.54
468.872	4786.54
469.133	5002.54
469.394	5148.54
469.655	5203.54
469.915	5087.54
470.176	4980.54
470.437	5082.54
470.698	5257.54
470.958	5261.54
471.219	5240.54
471.48	5338.54
471.741	5486.54
472.001	5467.54
472.262	5467.54
472.523	5649.54
472.784	5719.54
473.044	5675.54
473.305	5697.54
473.566	5698.54
473.826	5795.54
474.087	5752.54
474.348	5829.54
474.608	5989.54
474.869	6005.54
475.129	5892.54
475.39	6026.54
475.651	6240.54
475.911	6361.54
476.172	6201.54
476.432	6320.54
476.693	6528.54
476.953	6389.54
477.214	6404.54
477.475	6466.54
477.735	6504.54
477.996	6652.54
478.256	6535.54
478.517	6613.54
478.777	6741.54
479.038	6874.54
479.298	6920.54
479.558	6902.54
479.819	7076.54
480.079	7120.54
480.34	7130.54
480.6	7077.54
480.861	7273.54
481.121	7275.54
481.381	7215.54
481.642	7302.54
481.902	7360.54
482.162	7420.54
482.423	7412.54
482.683	7501.54
482.943	7588.54
483.204	7516.54
483.464	7572.54
483.724	7587.54
483.985	7652.54
484.245	7800.54
484.505	7739.54
484.765	7792.54
485.026	7917.54
485.286	8040.54
485.546	8007.54
485.806	8031.54
486.067	8027.54
486.327	7988.54
486.587	7982.54
486.847	8065.54
487.107	8196.54
487.368	8227.54
487.628	8163.54
487.888	8233.54
488.148	8347.54
488.408	8283.54
488.668	8319.54
488.928	8363.54
489.188	8387.54
489.449	8461.54
489.709	8369.54
489.969	8359.54
490.229	8489.54
490.489	8546.54
490.749	8474.54
491.009	8333.54
491.269	8396.54
491.529	8517.54
491.789	8515.54
492.049	8623.54
492.309	8712.54
492.569	8588.54
492.829	8577.54
493.089	8583.54
493.349	8772.54
493.609	8642.54
493.869	8574.54
494.129	8720.54
494.389	8773.54
494.648	8676.54
494.908	8560.54
495.168	8690.54
495.428	8816.54
495.688	8726.54
495.948	8609.54
496.208	8674.54
496.467	8733.54
496.727	8754.54
496.987	8788.54
497.247	8792.54
497.507	8843.54
497.767	8870.54
498.026	8677.54
498.286	8792.54
498.546	8953.54
498.806	8861.54
499.065	8848.54
499.325	8725.54
499.585	8788.54
499.845	8844.54
500.104	8786.54
500.364	8844.54
500.624	8853.54
500.883	8801.54
501.143	8865.54
501.403	8932.54
501.662	9033.54
501.922	8928.54
502.182	8769.54
502.441	8753.54
502.701	8813.54
502.96	8932.54
503.22	8903.54
503.48	8880.54
503.739	8898.54
503.999	8833.54
504.258	8786.54
504.518	8887.54
504.777	8918.54
505.037	8891.54
505.296	8776.54
505.556	8700.54
505.815	8915.54
506.075	9030.54
506.334	8941.54
506.594	8774.54
506.853	8876.54
507.113	8819.54
507.372	8658.54
507.632	8829.54
507.891	8905.54
508.151	8921.54
508.41	8750.54
508.669	8749.54
508.929	8883.54
509.188	8813.54
509.447	8776.54
509.707	8714.54
509.966	8845.54
510.226	8927.54
510.485	8864.54
510.744	8818.54
511.004	8892.54
511.263	8759.54
511.522	8714.54
511.781	8733.54
512.041	8842.54
512.3	8787.54
512.559	8792.54
512.818	8887.54
513.078	8965.54
513.337	8942.54
513.596	8835.54
513.855	8842.54
514.115	8931.54
514.374	8893.54
514.633	8823.54
514.892	8860.54
515.151	9003.54
515.41	8983.54
515.67	8914.54
515.929	8883.54
516.188	8984.54
516.447	8905.54
516.706	8795.54
516.965	8852.54
517.224	8940.54
517.483	8935.54
517.743	8840.54
518.002	8861.54
518.261	8926.54
518.52	8990.54
518.779	8861.54
519.038	8846.54
519.297	8921.54
519.556	8935.54
519.815	8878.54
520.074	8870.54
520.333	8998.54
520.592	8981.54
520.851	8805.54
521.11	8880.54
521.369	9018.54
521.628	8884.54
521.887	8792.54
522.145	8855.54
522.404	8911.54
522.663	8893.54
522.922	8792.54
523.181	8831.54
523.44	8932.54
523.699	8933.54
523.958	8820.54
524.217	8800.54
524.475	8822.54
524.734	8826.54
524.993	8807.54
525.252	8829.54
525.511	8873.54
525.769	8857.54
526.028	8756.54
526.287	8812.54
526.546	8872.54
526.805	8878.54
527.063	8770.54
527.322	8733.54
527.581	8821.54
527.839	8847.54
528.098	8807.54
528.357	8784.54
528.616	8837.54
528.874	8859.54
529.133	8785.54
529.392	8849.54
529.65	8815.54
529.909	8768.54
530.168	8658.54
530.426	8739.54
530.685	8885.54
530.943	8860.54
531.202	8739.54
531.461	8730.54
531.719	8870.54
531.978	8799.54
532.236	8650.54
532.495	8728.54
532.753	8840.54
533.012	8758.54
533.271	8692.54
533.529	8654.54
533.788	8767.54
534.046	8674.54
534.305	8671.54
534.563	8860.54
534.822	8883.54
535.08	8773.54
535.338	8725.54
535.597	8774.54
535.855	8856.54
536.114	8820.54
536.372	8741.54
536.631	8804.54
536.889	8915.54
537.147	8890.54
537.406	8627.54
537.664	8735.54
537.923	8852.54
538.181	8843.54
538.439	8691.54
538.698	8831.54
538.956	8864.54
539.214	8789.54
539.473	8775.54
539.731	8853.54
539.989	8940.54
540.248	8899.54
540.506	8842.54
540.764	8887.54
541.022	8955.54
541.281	9020.54
541.539	8952.54
541.797	8876.54
542.055	8988.54
542.314	9124.54
542.572	9088.54
542.83	9050.54
543.088	9175.54
543.346	9067.54
543.604	8950.54
543.863	9114.54
544.121	9220.54
544.379	9151.54
544.637	9059.54
544.895	9221.54
545.153	9372.54
545.411	9194.54
545.67	9034.54
545.928	9204.54
546.186	9386.54
546.444	9392.54
546.702	9339.54
546.96	9392.54
547.218	9419.54
547.476	9449.54
547.734	9386.54
547.992	9444.54
548.25	9640.54
548.508	9604.54
548.766	9557.54
549.024	9640.54
549.282	9653.54
549.54	9692.54
549.798	9641.54
550.056	9721.54
550.314	9826.54
550.572	9763.54
550.83	9654.54
551.088	9765.54
551.346	9914.54
551.603	9970.54
551.861	9886.54
552.119	9972.54
552.377	10063.54
552.635	10040.54
552.893	9989.54
553.151	10043.54
553.409	10158.54
553.666	10198.54
553.924	10143.54
554.182	10140.54
554.44	10267.54
554.698	10296.54
554.955	10180.54
555.213	10216.54
555.471	10336.54
555.729	10448.54
555.986	10288.54
556.244	10319.54
556.502	10594.54
556.76	10447.54
557.017	10378.54
557.275	10487.54
557.533	10643.54
557.79	10618.54
558.048	10444.54
558.306	10525.54
558.563	10623.54
558.821	10586.54
559.079	10553.54
559.336	10578.54
559.594	10622.54
559.852	10610.54
560.109	10563.54
560.367	10702.54
560.624	10761.54
560.882	10696.54
561.14	10702.54
561.397	10764.54
561.655	10716.54
561.912	10770.54
562.17	10675.54
562.427	10713.54
562.685	10784.54
562.942	10772.54
563.2	10777.54
563.457	10838.54
563.715	10841.54
563.972	10862.54
564.23	10664.54
564.487	10612.54
564.745	10726.54
565.002	10824.54
565.26	10742.54
565.517	10718.54
565.774	10798.54
566.032	10832.54
566.289	10674.54
566.547	10676.54
566.804	10821.54
567.061	10783.54
567.319	10679.54
567.576	10760.54
567.833	10807.54
568.091	10858.54
568.348	10776.54
568.605	10741.54
568.863	10767.54
569.12	10693.54
569.377	10573.54
569.635	10551.54
569.892	10662.54
570.149	10636.54
570.406	10551.54
570.664	10541.54
570.921	10662.54
571.178	10480.54
571.435	10482.54
571.693	10542.54
571.95	10596.54
572.207	10467.54
572.464	10357.54
572.721	10421.54
572.979	10453.54
573.236	10423.54
573.493	10354.54
573.75	10342.54
574.007	10408.54
574.264	10284.54
574.521	10196.54
574.779	10157.54
575.036	10224.54
575.293	10202.54
575.55	10085.54
575.807	10079.54
576.064	10093.54
576.321	10059.54
576.578	9852.54
576.835	9835.54
577.092	10047.54
577.349	9893.54
577.606	9620.54
577.863	9639.54
578.12	9755.54
578.377	9735.54
578.634	9520.54
578.891	9511.54
579.148	9559.54
579.405	9497.54
579.662	9351.54
579.919	9406.54
580.176	9384.54
580.433	9326.54
580.69	9225.54
580.947	9162.54
581.204	9248.54
581.461	9148.54
581.717	8996.54
581.974	9060.54
582.231	9081.54
582.488	8906.54
582.745	8684.54
583.002	8742.54
583.259	8902.54
583.515	8771.54
583.772	8555.54
584.029	8643.54
584.286	8707.54
584.543	8436.54
584.799	8452.54
585.056	8464.54
585.313	8481.54
585.57	8415.54
585.826	8295.54
586.083	8364.54
586.34	8447.54
586.597	8289.54
586.853	8075.54
587.11	7989.54
587.367	8102.54
587.623	8089.54
587.88	7993.54
588.137	7860.54
588.393	7928.54
588.65	7837.54
588.907	7731.54
589.163	7832.54
589.42	7859.54
589.677	7775.54
589.933	7638.54
590.19	7707.54
590.446	7814.54
590.703	7754.54
590.96	7505.54
591.216	7471.54
591.473	7524.54
591.729	7506.54
591.986	7474.54
592.242	7528.54
592.499	7692.54
592.755	7450.54
593.012	7292.54
593.268	7365.54
593.525	7394.54
593.781	7386.54
594.038	7225.54
594.294	7256.54
594.551	7271.54
594.807	7202.54
595.064	7167.54
595.32	7161.54
595.576	7277.54
595.833	7316.54
596.089	7148.54
596.346	7218.54
596.602	7239.54
596.858	7284.54
597.115	7158.54
597.371	7160.54
597.628	7215.54
597.884	7151.54
598.14	7041.54
598.397	7127.54
598.653	7218.54
598.909	7077.54
599.166	6940.54
599.422	7027.54
599.678	7107.54
599.934	7081.54
600.191	6940.54
600.447	6967.54
600.703	7005.54
600.959	6946.54
601.216	6757.54
601.472	6815.54
601.728	6918.54
601.984	6922.54
602.241	6883.54
602.497	6930.54
602.753	7030.54
603.009	6963.54
603.265	6811.54
603.521	6922.54
603.778	7009.54
604.034	6862.54
604.29	6793.54
604.546	6853.54
604.802	6958.54
605.058	6880.54
605.314	6772.54
605.571	6900.54
605.827	6879.54
606.083	6792.54
606.339	6758.54
606.595	6866.54
606.851	6910.54
607.107	6941.54
607.363	6738.54
607.619	6757.54
607.875	6983.54
608.131	6899.54
608.387	6631.54
608.643	6704.54
608.899	6743.54
609.155	6730.54
609.411	6743.54
609.667	6816.54
609.923	6802.54
610.179	6733.54
610.435	6585.54
610.691	6631.54
610.947	6781.54
611.203	6679.54
611.459	6616.54
611.714	6693.54
611.97	6852.54
612.226	6781.54
612.482	6549.54
612.738	6663.54
612.994	6859.54
613.25	6664.54
613.505	6452.54
613.761	6546.54
614.017	6628.54
614.273	6601.54
614.529	6526.54
614.785	6458.54
615.04	6541.54
615.296	6556.54
615.552	6504.54
615.808	6470.54
616.063	6555.54
616.319	6516.54
616.575	6399.54
616.831	6493.54
617.086	6664.54
617.342	6615.54
617.598	6438.54
617.854	6454.54
618.109	6544.54
618.365	6419.54
618.621	6284.54
618.876	6376.54
619.132	6470.54
619.388	6384.54
619.643	6205.54
619.899	6330.54
620.155	6407.54
620.41	6373.54
620.666	6254.54
620.921	6301.54
621.177	6395.54
621.433	6370.54
621.688	6262.54
621.944	6162.54
622.199	6220.54
622.455	6262.54
622.71	6101.54
622.966	6112.54
623.221	6080.54
623.477	6126.54
623.732	6091.54
623.988	6013.54
624.243	6127.54
624.499	6102.54
624.754	5951.54
625.01	5986.54
625.265	6066.54
625.521	6132.54
625.776	5990.54
626.032	5943.54
626.287	6031.54
626.543	5964.54
626.798	5830.54
627.053	5877.54
627.309	5921.54
627.564	5800.54
627.82	5788.54
628.075	5898.54
628.33	5853.54
628.586	5740.54
628.841	5595.54
629.096	5705.54
629.352	5766.54
629.607	5671.54
629.862	5624.54
630.118	5718.54
630.373	5684.54
630.628	5703.54
630.884	5559.54
631.139	5587.54
631.394	5688.54
631.649	5617.54
631.905	5475.54
632.16	5559.54
632.415	5734.54
632.67	5587.54
632.926	5454.54
633.181	5387.54
633.436	5512.54
633.691	5471.54
633.946	5277.54
634.202	5308.54
634.457	5405.54
634.712	5380.54
634.967	5241.54
635.222	5204.54
635.477	5328.54
635.733	5318.54
635.988	5158.54
636.243	5184.54
636.498	5326.54
636.753	5279.54
637.008	5110.54
637.263	5168.54
637.518	5234.54
637.773	5196.54
638.028	5138.54
638.283	5140.54
638.539	5222.54
638.794	5195.54
639.049	5069.54
639.304	5004.54
639.559	5080.54
639.814	5049.54
640.069	5004.54
640.324	4941.54
640.579	5010.54
640.834	5016.54
641.089	4886.54
641.344	4922.54
641.598	5101.54
641.853	4990.54
642.108	4770.54
642.363	4751.54
642.618	4950.54
642.873	4857.54
643.128	4683.54
643.383	4752.54
643.638	4802.54
643.893	4863.54
644.148	4820.54
644.402	4675.54
644.657	4768.54
644.912	4724.54
645.167	4671.54
645.422	4714.54
645.677	4709.54
645.931	4710.54
646.186	4690.54
646.441	4609.54
646.696	4572.54
646.951	4607.54
647.205	4597.54
647.46	4557.54
647.715	4619.54
647.97	4730.54
648.224	4823.54
648.479	4634.54
648.734	4724.54
648.989	4656.54
649.243	4546.54
649.498	4502.54
649.753	4501.54
650.007	4560.54
650.262	4453.54
650.517	4424.54
650.771	4499.54
651.026	4461.54
651.281	4315.54
651.535	4393.54
651.79	4475.54
652.045	4471.54
652.299	4361.54
652.554	4332.54
652.809	4435.54
653.063	4524.54
653.318	4421.54
653.572	4320.54
653.827	4439.54
654.081	4340.54
654.336	4204.54
654.591	4242.54
654.845	4359.54
655.1	4268.54
655.354	4229.54
655.609	4305.54
655.863	4418.54
656.118	4390.54
656.372	4233.54
656.627	4236.54
656.881	4379.54
657.136	4248.54
657.39	4158.54
657.645	4319.54
657.899	4458.54
658.153	4301.54
658.408	4200.54
658.662	4264.54
658.917	4286.54
659.171	4180.54
659.426	4091.54
659.68	4152.54
659.934	4268.54
660.189	4251.54
660.443	4138.54
660.697	4252.54
660.952	4328.54
661.206	4220.54
661.46	4075.54
661.715	4149.54
661.969	4268.54
662.223	4226.54
662.478	4141.54
662.732	4199.54
662.986	4253.54
663.241	4259.54
663.495	4136.54
663.749	4166.54
664.003	4294.54
664.258	4257.54
664.512	4151.54
664.766	4200.54
665.02	4285.54
665.275	4263.54
665.529	4066.54
665.783	4139.54
666.037	4241.54
666.291	4222.54
666.546	4166.54
666.8	4239.54
667.054	4203.54
667.308	4258.54
667.562	4054.54
667.816	4130.54
668.071	4276.54
668.325	4178.54
668.579	4158.54
668.833	4251.54
669.087	4374.54
669.341	4259.54
669.595	4158.54
669.849	4252.54
670.103	4311.54
670.357	4279.54
670.612	4250.54
670.866	4214.54
671.12	4323.54
671.374	4332.54
671.628	4254.54
671.882	4258.54
672.136	4367.54
672.39	4310.54
672.644	4118.54
672.898	4303.54
673.152	4502.54
673.406	4407.54
673.66	4312.54
673.914	4385.54
674.168	4468.54
674.422	4381.54
674.675	4262.54
674.929	4311.54
675.183	4474.54
675.437	4448.54
675.691	4339.54
675.945	4406.54
676.199	4520.54
676.453	4430.54
676.707	4270.54
676.961	4307.54
677.214	4438.54
677.468	4452.54
677.722	4485.54
677.976	4455.54
678.23	4567.54
678.484	4552.54
678.737	4400.54
678.991	4456.54
679.245	4555.54
679.499	4506.54
679.753	4439.54
680.006	4489.54
680.26	4643.54
680.514	4626.54
680.768	4449.54
681.021	4552.54
681.275	4606.54
681.529	4587.54
681.783	4542.54
682.036	4585.54
682.29	4556.54
682.544	4562.54
682.797	4530.54
683.051	4563.54
683.305	4624.54
683.559	4639.54
683.812	4652.54
684.066	4655.54
684.32	4714.54
684.573	4700.54
684.827	4729.54
685.08	4729.54
685.334	4814.54
685.588	4710.54
685.841	4611.54
686.095	4773.54
686.348	4788.54
686.602	4769.54
686.856	4727.54
687.109	4700.54
687.363	4729.54
687.616	4695.54
687.87	4606.54
688.123	4664.54
688.377	4774.54
688.63	4812.54
688.884	4768.54
689.137	4848.54
689.391	4882.54
689.644	4723.54
689.898	4679.54
690.151	4728.54
690.405	4880.54
690.658	4797.54
690.912	4706.54
691.165	4692.54
691.419	4851.54
691.672	4906.54
691.926	4800.54
692.179	4771.54
692.432	4898.54
692.686	4879.54
692.939	4738.54
693.193	4782.54
693.446	4914.54
693.699	4895.54
693.953	4883.54
694.206	4912.54
694.459	4955.54
694.713	4966.54
694.966	4794.54
695.219	4822.54
695.473	4896.54
695.726	4813.54
695.979	4781.54
696.233	4894.54
696.486	4944.54
696.739	4948.54
696.992	4837.54
697.246	4886.54
697.499	4976.54
697.752	4818.54
698.006	4804.54
698.259	4916.54
698.512	4870.54
698.765	4860.54
699.018	4859.54
699.272	4902.54
699.525	4877.54
699.778	4804.54
700.031	4768.54
700.284	4790.54
700.538	4888.54
700.791	4901.54
701.044	4857.54
701.297	4854.54
701.55	4869.54
701.803	4864.54
702.056	4759.54
702.31	4791.54
702.563	4906.54
702.816	4791.54
703.069	4704.54
703.322	4792.54
703.575	4899.54
703.828	4910.54
704.081	4805.54
704.334	4757.54
704.587	4810.54
704.84	4812.54
705.093	4822.54
705.346	4872.54
705.599	4875.54
705.853	4858.54
706.106	4869.54
706.359	5114.54
706.612	4896.54
706.865	4900.54
707.118	4721.54
707.37	4754.54
707.623	4897.54
707.876	4846.54
708.129	4767.54
708.382	4897.54
708.635	5011.54
708.888	4828.54
709.141	4695.54
709.394	4762.54
709.647	4843.54
709.9	4708.54
710.153	4615.54
710.406	4753.54
710.658	4848.54
710.911	4772.54
711.164	4598.54
711.417	4605.54
711.67	4687.54
711.923	4765.54
712.176	4589.54
712.428	4618.54
712.681	4763.54
712.934	4777.54
713.187	4652.54
713.44	4566.54
713.692	4697.54
713.945	4631.54
714.198	4534.54
714.451	4521.54
714.704	4634.54
714.956	4668.54
715.209	4649.54
715.462	4611.54
715.715	4615.54
715.967	4606.54
716.22	4485.54
716.473	4541.54
716.725	4650.54
716.978	4600.54
717.231	4565.54
717.484	4598.54
717.736	4514.54
717.989	4429.54
718.242	4354.54
718.494	4453.54
718.747	4575.54
718.999	4527.54
719.252	4516.54
719.505	4508.54
719.757	4506.54
720.01	4458.54
720.263	4411.54
720.515	4404.54
720.768	4495.54
721.02	4489.54
721.273	4346.54
721.525	4320.54
721.778	4380.54
722.031	4457.54
722.283	4296.54
722.536	4279.54
722.788	4373.54
723.041	4329.54
723.293	4258.54
723.546	4254.54
723.798	4324.54
724.051	4386.54
724.303	4311.54
724.556	4335.54
724.808	4426.54
725.061	4326.54
725.313	4182.54
725.566	4174.54
725.818	4221.54
726.071	4198.54
726.323	4050.54
726.575	4121.54
726.828	4284.54
727.08	4312.54
727.333	4138.54
727.585	4142.54
727.837	4192.54
728.09	4161.54
728.342	4042.54
728.595	4118.54
728.847	4271.54
729.099	4030.54
729.352	4008.54
729.604	4031.54
729.856	4106.54
730.109	4069.54
730.361	3977.54
730.613	4048.54
730.866	4130.54
731.118	4008.54
731.37	3944.54
731.622	3958.54
731.875	4012.54
732.127	4029.54
732.379	4002.54
732.631	4066.54
732.884	3990.54
733.136	3907.54
733.388	3802.54
733.64	3870.54
733.893	4019.54
734.145	3907.54
734.397	3793.54
734.649	3782.54
734.901	3856.54
735.154	3764.54
735.406	3680.54
735.658	3756.54
735.91	3902.54
736.162	3825.54
736.414	3672.54
736.667	3760.54
736.919	3808.54
737.171	3703.54
737.423	3662.54
737.675	3690.54
737.927	3788.54
738.179	3759.54
738.431	3701.54
738.684	3642.54
738.936	3719.54
739.188	3757.54
739.44	3577.54
739.692	3548.54
739.944	3603.54
740.196	3616.54
740.448	3555.54
740.7	3532.54
740.952	3555.54
741.204	3586.54
741.456	3513.54
741.708	3527.54
741.96	3525.54
742.212	3588.54
742.464	3579.54
742.716	3433.54
742.968	3534.54
743.22	3457.54
743.472	3387.54
743.724	3449.54
743.976	3562.54
744.228	3557.54
744.48	3327.54
744.732	3354.54
744.983	3494.54
745.235	3511.54
745.487	3457.54
745.739	3484.54
745.991	3463.54
746.243	3517.54
746.495	3372.54
746.747	3399.54
746.999	3481.54
747.25	3451.54
747.502	3394.54
747.754	3496.54
748.006	3462.54
748.258	3540.54
748.51	3522.54
748.761	3370.54
749.013	3386.54
749.265	3438.54
749.517	3407.54
749.768	3495.54
750.02	3521.54
750.272	3436.54
750.524	3254.54
750.776	3215.54
751.027	3404.54
751.279	3432.54
751.531	3229.54
751.782	3288.54
752.034	3368.54
752.286	3304.54
752.538	3160.54
752.789	3234.54
753.041	3325.54
753.293	3288.54
753.544	3135.54
753.796	3201.54
754.048	3315.54
754.299	3335.54
754.551	3238.54
754.803	3159.54
755.054	3210.54
755.306	3262.54
755.558	3127.54
755.809	3174.54
756.061	3337.54
756.312	3179.54
756.564	3158.54
756.816	3200.54
757.067	3157.54
757.319	3132.54
757.57	3100.54
757.822	3180.54
758.073	3208.54
758.325	3145.54
758.577	3028.54
758.828	3021.54
759.08	3211.54
759.331	3210.54
759.583	3007.54
759.834	3090.54
760.086	3056.54
760.337	3047.54
760.589	2982.54
760.84	2970.54
761.092	3059.54
761.343	3031.54
761.595	2838.54
761.846	3012.54
762.097	3044.54
762.349	2987.54
762.6	2859.54
762.852	2963.54
763.103	3118.54
763.355	2944.54
763.606	2836.54
763.857	3014.54
764.109	3108.54
764.36	2983.54
764.612	2916.54
764.863	2976.54
765.114	2987.54
765.366	2868.54
765.617	2767.54
765.868	2843.54
766.12	2968.54
766.371	2974.54
766.622	2789.54
766.874	2860.54
767.125	2992.54
767.376	2868.54
767.628	2776.54
767.879	2831.54
768.13	2923.54
768.381	2885.54
768.633	2835.54
768.884	2841.54
769.135	2866.54
769.386	2850.54
769.638	2801.54
769.889	2814.54
770.14	2857.54
770.391	2749.54
770.643	2667.54
770.894	2711.54
771.145	2789.54
771.396	2704.54
771.647	2632.54
771.899	2739.54
772.15	2814.54
772.401	2763.54
772.652	2596.54
772.903	2646.54
773.154	2979.54
773.406	3201.54
773.657	2692.54
773.908	2670.54
774.159	2725.54
774.41	2763.54
774.661	2587.54
774.912	2618.54
775.163	2808.54
775.414	2805.54
775.666	2546.54
775.917	2573.54
776.168	2615.54
776.419	2621.54
776.67	2523.54
776.921	2524.54
777.172	2621.54
777.423	2635.54
777.674	2658.54
777.925	2636.54
778.176	2550.54
778.427	2555.54
778.678	2459.54
778.929	2508.54
779.18	2613.54
779.431	2528.54
779.682	2490.54
779.933	2525.54
780.184	2552.54
780.435	2542.54
780.686	2492.54
780.937	2532.54
781.188	2567.54
781.439	2662.54
781.69	2580.54
781.941	2534.54
782.191	2537.54
782.442	2497.54
782.693	2381.54
782.944	2402.54
783.195	2492.54
783.446	2473.54
783.697	2491.54
783.948	2366.54
784.199	2416.54
784.449	2391.54
784.7	2378.54
784.951	2411.54
785.202	2543.54
785.453	2504.54
785.704	2297.54
785.954	2277.54
786.205	2371.54
786.456	2309.54
786.707	2223.54
786.958	2287.54
787.208	2368.54
787.459	2315.54
787.71	2345.54
787.961	2339.54
788.211	2347.54
788.462	2342.54
788.713	2264.54
788.964	2253.54
789.214	2373.54
789.465	2355.54
789.716	2285.54
789.967	2293.54
790.217	2299.54
790.468	2264.54
790.719	2199.54
790.969	2225.54
791.22	2258.54
791.471	2307.54
791.721	2372.54
791.972	2284.54
792.223	2296.54
792.473	2205.54
792.724	2204.54
792.975	2196.54
793.225	2242.54
793.476	2211.54
793.726	2147.54
793.977	2238.54
794.228	2384.54
794.478	2246.54
794.729	2128.54
794.979	2233.54
795.23	2256.54
795.481	2198.54
795.731	2102.54
795.982	2178.54
796.232	2172.54
796.483	2112.54
796.733	2071.54
796.984	2109.54
797.234	2157.54
797.485	2204.54
797.735	2048.54
797.986	2076.54
798.236	2212.54
798.487	2116.54
798.737	2109.54
798.988	2205.54
799.238	2256.54
799.489	2098.54
799.739	2015.54
799.99	2082.54
800.24	2188.54
800.491	2231.54
800.741	2068.54
800.991	1995.54
801.242	2079.54
801.492	2061.54
801.743	2020.54
801.993	2246.54
802.244	2437.54
802.494	2088.54
802.744	2032.54
802.995	2057.54
803.245	2072.54
803.495	2025.54
803.746	1976.54
803.996	2061.54
804.246	2064.54
804.497	2033.54
804.747	1948.54
804.997	2012.54
805.248	1981.54
805.498	1954.54
805.748	1986.54
805.999	1881.54
806.249	1970.54
806.499	1981.54
806.75	1868.54
807	1895.54
807.25	1997.54
807.5	1948.54
807.751	1963.54
808.001	2002.54
808.251	1971.54
808.501	2050.54
808.752	2056.54
809.002	1972.54
809.252	1950.54
809.502	1895.54
809.752	1857.54
810.003	1822.54
810.253	1882.54
810.503	1918.54
810.753	1941.54
811.003	1972.54
811.254	1991.54
811.504	1917.54
811.754	1867.54
812.004	1872.54
812.254	2099.54
812.504	1984.54
812.754	1868.54
813.005	1907.54
813.255	1964.54
813.505	1906.54
813.755	1809.54
814.005	1904.54
814.255	1911.54
814.505	1877.54
814.755	1773.54
815.005	1798.54
815.255	1883.54
815.505	1830.54
815.756	1857.54
816.006	1854.54
816.256	1795.54
816.506	1765.54
816.756	1740.54
817.006	1746.54
817.256	1828.54
817.506	1834.54
817.756	1800.54
818.006	1806.54
818.256	1838.54
818.506	1807.54
818.756	1685.54
819.006	1726.54
819.256	1814.54
819.506	1764.54
819.756	1692.54
820.006	1778.54
820.255	1819.54
820.505	1807.54
820.755	1673.54
821.005	1721.54
821.255	1838.54
821.505	1748.54
821.755	1656.54
822.005	1800.54
822.255	1870.54
822.505	1770.54
822.755	1795.54
823.004	1680.54
823.254	1684.54
823.504	1746.54
823.754	1754.54
824.004	1664.54
824.254	1766.54
824.504	1751.54
824.753	1762.54
825.003	1770.54
825.253	1813.54
825.503	1691.54
825.753	1627.54
826.002	1695.54
826.252	1898.54
826.502	1705.54
826.752	1617.54
827.002	1642.54
827.251	1732.54
827.501	1668.54
827.751	1614.54
828.001	1641.54
828.25	1720.54
828.5	1586.54
828.75	1567.54
829	1667.54
829.249	1758.54
829.499	1572.54
829.749	1618.54
829.998	1660.54
830.248	1686.54
830.498	1582.54
830.748	1606.54
830.997	1662.54
831.247	1706.54
831.497	1693.54
831.746	1579.54
831.996	1674.54
832.246	1817.54
832.495	1795.54
832.745	1529.54
832.994	1547.54
833.244	1709.54
833.494	1611.54
833.743	1517.54
833.993	1557.54
834.243	1626.54
834.492	1608.54
834.742	1586.54
834.991	1593.54
835.241	1734.54
835.49	1573.54
835.74	1443.54
835.99	1522.54
836.239	1644.54
836.489	1663.54
836.738	1538.54
836.988	1428.54
837.237	1539.54
837.487	1666.54
837.736	1550.54
837.986	1507.54
838.235	1578.54
838.485	1555.54
838.734	1499.54
838.984	1559.54
839.233	1552.54
839.483	1467.54
839.732	1438.54
839.982	1493.54
840.231	1553.54
840.481	1547.54
840.73	1421.54
840.979	1479.54
841.229	1500.54
841.478	1497.54
841.728	1385.54
841.977	1364.54
842.227	1419.54
842.476	1378.54
842.725	1323.54
842.975	1395.54
843.224	1509.54
843.474	1533.54
843.723	1454.54
843.972	1421.54
844.222	1447.54
844.471	1512.54
844.72	1426.54
844.97	1398.54
845.219	1518.54
845.468	1512.54
845.718	1446.54
845.967	1433.54
846.216	1459.54
846.466	1529.54
846.715	1378.54
846.964	1389.54
847.214	1401.54
847.463	1366.54
847.712	1367.54
847.961	1321.54
848.211	1383.54
848.46	1414.54
848.709	1347.54
848.958	1299.54
849.208	1367.54
849.457	1367.54
849.706	1387.54
849.955	1346.54
850.205	1303.54
850.454	1439.54
850.703	1450.54
850.952	1376.54
851.201	1458.54
851.451	1358.54
851.7	1330.54
851.949	1241.54
852.198	1361.54
852.447	1312.54
852.696	1245.54
852.946	1299.54
853.195	1407.54
853.444	1385.54
853.693	1208.54
853.942	1238.54
854.191	1328.54
854.44	1326.54
854.689	1288.54
854.939	1250.54
855.188	1264.54
855.437	1252.54
855.686	1228.54
855.935	1241.54
856.184	1311.54
856.433	1356.54
856.682	1292.54
856.931	1272.54
857.18	1282.54
857.429	1208.54
857.678	1195.54
857.927	1224.54
858.176	1235.54
858.425	1169.54
858.674	1093.54
858.924	1183.54
859.173	1225.54
859.422	1246.54
859.671	1119.54
859.92	1184.54
860.169	1225.54
860.417	1244.54
860.666	1177.54
860.915	1146.54
861.164	1199.54
861.413	1152.54
861.662	1091.54
861.911	1132.54
862.16	1238.54
862.409	1212.54
862.658	1062.54
862.907	1114.54
863.156	1198.54
863.405	1184.54
863.654	1068.54
863.903	1037.54
864.151	1148.54
864.4	1181.54
864.649	1108.54
864.898	1171.54
865.147	1218.54
865.396	1204.54
865.645	1069.54
865.894	1134.54
866.142	1253.54
866.391	1130.54
866.64	1022.54
866.889	1148.54
867.138	1278.54
867.387	1146.54
867.635	1041.54
867.884	1118.54
868.133	1213.54
868.382	1138.54
868.631	991.54
868.879	1020.54
869.128	1120.54
869.377	1111.54
869.626	1046.54
869.874	1050.54
870.123	1157.54
870.372	1120.54
870.621	986.54
870.869	1024.54
871.118	1120.54
871.367	1102.54
871.616	994.54
871.864	1081.54
872.113	1132.54
872.362	1107.54
872.61	1033.54
872.859	1061.54
873.108	1113.54
873.357	1036.54
873.605	945.54
873.854	962.54
874.103	1001.54
874.351	1006.54
874.6	989.54
874.848	1008.54
875.097	1062.54
875.346	1056.54
875.594	947.54
875.843	1055.54
876.092	1193.54
876.34	1071.54
876.589	985.54
876.837	906.54
877.086	993.54
877.335	1057.54
877.583	987.54
877.832	1021.54
878.08	1117.54
878.329	1012.54
878.578	927.54
878.826	957.54
879.075	1028.54
879.323	1024.54
879.572	938.54
879.82	1053.54
880.069	983.54
880.317	991.54
880.566	880.54
880.814	976.54
881.063	1114.54
881.311	1014.54
881.56	1014.54
881.808	935.54
882.057	999.54
882.305	951.54
882.554	955.54
882.802	869.54
883.051	923.54
883.299	921.54
883.548	880.54
883.796	968.54
884.045	975.54
884.293	903.54
884.541	774.54
884.79	774.54
885.038	911.54
885.287	898.54
885.535	922.54
885.783	952.54
886.032	884.54
886.28	839.54
886.529	800.54
886.777	853.54
887.025	993.54
887.274	913.54
887.522	837.54
887.77	846.54
888.019	887.54
888.267	832.54
888.516	757.54
888.764	802.54
889.012	884.54
889.261	864.54
889.509	784.54
889.757	811.54
890.005	832.54
890.254	797.54
890.502	795.54
890.75	995.54
890.999	993.54
891.247	892.54
891.495	866.54
891.743	835.54
891.992	971.54
892.24	871.54
892.488	772.54
892.737	768.54
892.985	855.54
893.233	867.54
893.481	817.54
893.729	787.54
893.978	926.54
894.226	917.54
894.474	740.54
894.722	759.54
894.97	818.54
895.219	800.54
895.467	784.54
895.715	814.54
895.963	813.54
896.211	755.54
896.46	669.54
896.708	790.54
896.956	871.54
897.204	927.54
897.452	830.54
897.7	768.54
897.948	832.54
898.197	783.54
898.445	727.54
898.693	745.54
898.941	812.54
899.189	797.54
899.437	767.54
899.685	861.54
899.933	784.54
900.181	788.54
900.43	709.54
900.678	711.54
900.926	784.54
901.174	743.54
901.422	694.54
901.67	728.54
901.918	804.54
902.166	753.54
902.414	616.54
902.662	667.54
902.91	782.54
903.158	758.54
903.406	717.54
903.654	695.54
903.902	716.54
904.15	698.54
904.398	614.54
904.646	696.54
904.894	766.54
905.142	769.54
905.39	715.54
905.638	643.54
905.886	692.54
906.134	700.54
906.382	677.54
906.63	631.54
906.878	720.54
907.126	694.54
907.374	640.54
907.622	653.54
907.869	772.54
908.117	728.54
908.365	655.54
908.613	620.54
908.861	653.54
909.109	620.54
909.357	572.54
909.605	635.54
909.853	724.54
910.1	637.54
910.348	482.54
910.596	534.54
910.844	705.54
911.092	743.54
911.34	631.54
911.588	645.54
911.835	711.54
912.083	677.54
912.331	650.54
912.579	692.54
912.827	839.54
913.075	680.54
913.322	569.54
913.57	589.54
913.818	712.54
914.066	658.54
914.313	586.54
914.561	644.54
914.809	656.54
915.057	619.54
915.305	587.54
915.552	583.54
915.8	701.54
916.048	608.54
916.296	528.54
916.543	612.54
916.791	684.54
917.039	643.54
917.286	515.54
917.534	557.54
917.782	705.54
918.03	606.54
918.277	482.54
918.525	483.54
918.773	613.54
919.02	600.54
919.268	516.54
919.516	553.54
919.763	559.54
920.011	571.54
920.259	464.54
920.506	552.54
920.754	642.54
921.002	612.54
921.249	571.54
921.497	547.54
921.745	576.54
921.992	576.54
922.24	448.54
922.487	588.54
922.735	755.54
922.983	652.54
923.23	543.54
923.478	498.54
923.725	607.54
923.973	610.54
924.221	579.54
924.468	608.54
924.716	590.54
924.963	583.54
925.211	506.54
925.458	552.54
925.706	680.54
925.953	709.54
926.201	500.54
926.448	482.54
926.696	583.54
926.944	561.54
927.191	494.54
927.439	503.54
927.686	551.54
927.934	559.54
928.181	442.54
928.429	462.54
928.676	532.54
928.923	438.54
929.171	389.54
929.418	555.54
929.666	600.54
929.913	593.54
930.161	392.54
930.408	435.54
930.656	495.54
930.903	537.54
931.151	434.54
931.398	464.54
931.645	588.54
931.893	464.54
932.14	431.54
932.388	447.54
932.635	602.54
932.882	621.54
933.13	514.54
933.377	450.54
933.625	539.54
933.872	468.54
934.119	383.54
934.367	440.54
934.614	450.54
934.861	438.54
935.109	412.54
935.356	463.54
935.603	524.54
935.851	478.54
936.098	394.54
936.345	491.54
936.593	534.54
936.84	473.54
937.087	349.54
937.335	429.54
937.582	469.54
937.829	487.54
938.077	426.54
938.324	416.54
938.571	498.54
938.818	418.54
939.066	354.54
939.313	347.54
939.56	479.54
939.807	496.54
940.055	364.54
940.302	387.54
940.549	551.54
940.796	482.54
941.044	414.54
941.291	427.54
941.538	578.54
941.785	468.54
942.033	405.54
942.28	466.54
942.527	480.54
942.774	460.54
943.021	329.54
943.269	362.54
943.516	458.54
943.763	470.54
944.01	404.54
944.257	482.54
944.504	564.54
944.752	503.54
944.999	439.54
945.246	371.54
945.493	441.54
945.74	426.54
945.987	362.54
946.234	432.54
946.482	522.54
946.729	414.54
946.976	328.54
947.223	367.54
947.47	529.54
947.717	478.54
947.964	478.54
948.211	420.54
948.458	500.54
948.705	451.54
948.952	333.54
949.2	388.54
949.447	505.54
949.694	498.54
949.941	347.54
950.188	340.54
950.435	389.54
950.682	409.54
950.929	261.54
951.176	324.54
951.423	488.54
951.67	484.54
951.917	424.54
952.164	398.54
952.411	463.54
952.658	507.54
952.905	362.54
953.152	295.54
953.399	404.54
953.646	407.54
953.893	303.54
954.14	339.54
954.387	392.54
954.634	374.54
954.881	329.54
955.128	385.54
955.375	372.54
955.622	354.54
955.869	354.54
956.115	340.54
956.362	407.54
956.609	379.54
956.856	300.54
957.103	294.54
957.35	427.54
957.597	426.54
957.844	341.54
958.091	330.54
958.338	427.54
958.585	377.54
958.831	203.54
959.078	268.54
959.325	431.54
959.572	323.54
959.819	244.54
960.066	212.54
960.313	335.54
960.559	304.54
960.806	180.54
961.053	236.54
961.3	403.54
961.547	407.54
961.794	187.54
962.04	365.54
962.287	418.54
962.534	274.54
962.781	244.54
963.028	325.54
963.274	423.54
963.521	335.54
963.768	248.54
964.015	294.54
964.262	445.54
964.508	295.54
964.755	199.54
965.002	216.54
965.249	283.54
965.495	239.54
965.742	194.54
965.989	202.54
966.236	322.54
966.482	255.54
966.729	189.54
966.976	175.54
967.222	259.54
967.469	276.54
967.716	203.54
967.963	199.54
968.209	294.54
968.456	254.54
968.703	150.54
968.949	263.54
969.196	422.54
969.443	410.54
969.689	174.54
969.936	149.54
970.183	265.54
970.429	216.54
970.676	149.54
970.923	230.54
971.169	290.54
971.416	223.54
971.663	180.54
971.909	230.54
972.156	285.54
972.402	278.54
972.649	221.54
972.896	238.54
973.142	280.54
973.389	271.54
973.635	176.54
973.882	296.54
974.129	372.54
974.375	235.54
974.622	151.54
974.868	171.54
975.115	269.54
975.361	226.54
975.608	186.54
975.855	302.54
976.101	320.54
976.348	245.54
976.594	182.54
976.841	235.54
977.087	237.54
977.334	274.54
977.58	132.54
977.827	137.54
978.073	275.54
978.32	235.54
978.566	108.54
978.813	190.54
979.059	244.54
979.306	232.54
979.552	138.54
979.799	205.54
980.045	207.54
980.292	200.54
980.538	117.54
980.785	120.54
981.031	176.54
981.278	150.54
981.524	94.54
981.771	236.54
982.017	376.54
982.263	285.54
982.51	126.54
982.756	188.54
983.003	264.54
983.249	215.54
983.495	127.54
983.742	115.54
983.988	188.54
984.235	202.54
984.481	110.54
984.727	122.54
984.974	251.54
985.22	243.54
985.467	158.54
985.713	163.54
985.959	268.54
986.206	235.54
986.452	163.54
986.698	197.54
986.945	200.54
987.191	243.54
987.437	245.54
987.684	208.54
987.93	371.54
988.176	272.54
988.423	70.54
988.669	138.54
988.915	309.54
989.162	165.54
989.408	60.54
989.654	140.54
989.901	176.54
990.147	174.54
990.393	185.54
990.639	223.54
990.886	255.54
991.132	306.54
991.378	246.54
991.625	361.54
991.871	340.54
992.117	221.54
992.363	151.54
992.61	198.54
992.856	311.54
993.102	178.54
993.348	101.54
993.594	121.54
993.841	174.54
994.087	300.54
994.333	170.54
994.579	150.54
994.826	200.54
995.072	207.54
995.318	7.54
995.564	75.54
995.81	191.54
996.057	156.54
996.303	41.54
996.549	69.54
996.795	157.54
997.041	150.54
997.287	120.54
997.534	107.54
997.78	164.54
998.026	190.54
998.272	79.54
998.518	66.54
998.764	198.54
999.01	244.54
999.256	144.54
999.503	88.54
999.749	119.54
999.995	77.54
1000.241	59.54
1000.487	133.54
1000.733	182.54
1000.979	144.54
1001.225	108.54
1001.471	175.54
1001.718	232.54
1001.964	253.54
1002.21	87.54
1002.456	118.54
1002.702	270.54
1002.948	175.54
1003.194	85.54
1003.44	69.54
1003.686	161.54
1003.932	114.54
1004.178	73.54
1004.424	133.54
1004.67	268.54
1004.916	244.54
1005.162	135.54
1005.408	80.54
1005.654	216.54
1005.9	80.54
1006.146	27.54
1006.392	84.54
1006.638	168.54
1006.884	130.54
1007.13	67.54
1007.376	34.54
1007.622	209.54
1007.868	228.54
1008.114	89.54
1008.36	156.54
1008.606	210.54
1008.852	204.54
1009.098	124.54
1009.344	165.54
1009.59	159.54
1009.836	22.54
1010.082	-39.46
1010.328	55.54
1010.574	147.54
1010.82	55.54
1011.065	-15.46
1011.311	10.54
1011.557	112.54
1011.803	80.54
1012.049	22.54
1012.295	52.54
1012.541	93.54
1012.787	115.54
1013.033	-29.46
1013.278	-35.46
1013.524	129.54
1013.77	178.54
1014.016	53.54
1014.262	79.54
1014.508	196.54
1014.754	27.54
1015	-1.46
1015.245	143.54
1015.491	183.54
1015.737	141.54
1015.983	5.54
1016.229	-17.46
1016.475	105.54
1016.72	227.54
1016.966	245.54
1017.212	134.54
1017.458	198.54
1017.704	106.54
1017.949	-7.46
1018.195	135.54
1018.441	229.54
1018.687	178.54
1018.933	42.54
1019.178	36.54
1019.424	194.54
1019.67	196.54
1019.916	3.54
1020.161	41.54
1020.407	112.54
1020.653	63.54
1020.899	-16.46
1021.144	71.54
1021.39	140.54
1021.636	25.54
1021.882	-55.46
1022.127	70.54
1022.373	214.54
1022.619	157.54
1022.865	43.54
1023.11	45.54
1023.356	165.54
1023.602	85.54
1023.847	23.54
1024.093	81.54
1024.339	60.54
1024.584	28.54
1024.83	10.54
1025.076	24.54
1025.321	137.54
1025.567	87.54
1025.813	-18.46
1026.058	76.54
1026.304	141.54
1026.55	62.54
1026.795	34.54
1027.041	23.54
1027.287	94.54
1027.532	123.54
1027.778	82.54
1028.024	53.54
1028.269	86.54
1028.515	19.54
1028.76	-36.46
1029.006	41.54
1029.252	144.54
1029.497	74.54
1029.743	51.54
1029.989	-10.46
1030.234	123.54
1030.48	195.54
1030.725	-8.46
1030.971	23.54
1031.216	149.54
1031.462	72.54
1031.708	-56.46
1031.953	-13.46
1032.199	64.54
1032.444	62.54
1032.69	-2.46
1032.935	6.54
1033.181	125.54
1033.426	26.54
1033.672	-103.46
1033.918	-52.46
1034.163	37.54
1034.409	24.54
1034.654	-15.46
1034.9	101.54
1035.145	126.54
1035.391	45.54
1035.636	-73.46
1035.882	12.54
1036.127	14.54
1036.373	-10.46
1036.618	-104.46
1036.864	-6.46
1037.109	125.54
1037.355	39.54
1037.6	-31.46
1037.845	-2.46
1038.091	187.54
1038.336	139.54
1038.582	134.54
1038.827	223.54
1039.073	80.54
1039.318	-22.46
1039.564	-90.46
1039.809	-15.46
1040.055	146.54
1040.3	132.54
1040.545	-32.46
1040.791	-44.46
1041.036	28.54
1041.282	69.54
1041.527	119.54
1041.772	-42.46
1042.018	21.54
1042.263	44.54
1042.509	-109.46
1042.754	-74.46
1042.999	64.54
1043.245	49.54
1043.49	-125.46
1043.736	-58.46
1043.981	35.54
1044.226	43.54
1044.472	16.54
1044.717	26.54
1044.962	131.54
1045.208	39.54
1045.453	-174.46
1045.698	-108.46
1045.944	93.54
1046.189	48.54
1046.434	-32.46
1046.68	-12.46
1046.925	144.54
1047.17	-2.46
1047.416	-169.46
1047.661	-65.46
1047.906	66.54
1048.152	54.54
1048.397	-34.46
1048.642	-42.46
1048.887	147.54
1049.133	139.54
1049.378	-29.46
1049.623	-40.46
1049.869	77.54
1050.114	4.54
1050.359	-58.46
1050.604	8.54
1050.85	153.54
1051.095	34.54
1051.34	-74.46
1051.585	-7.46
1051.831	183.54
1052.076	23.54
1052.321	-183.46
1052.566	-70.46
1052.812	118.54
1053.057	22.54
1053.302	-45.46
1053.547	51.54
1053.792	96.54
1054.038	89.54
1054.283	-117.46
1054.528	-14.46
1054.773	44.54
1055.018	34.54
1055.264	-80.46
1055.509	-93.46
1055.754	35.54
1055.999	-27.46
1056.244	-113.46
1056.49	-49.46
1056.735	39.54
1056.98	-11.46
1057.225	-122.46
1057.47	70.54
1057.715	4.54
1057.96	-81.46
1058.206	-122.46
1058.451	-13.46
1058.696	100.54
1058.941	54.54
1059.186	-105.46
1059.431	-84.46
1059.676	114.54
1059.922	50.54
1060.167	131.54
1060.412	299.54
1060.657	96.54
1060.902	12.54
1061.147	-153.46
1061.392	-78.46
1061.637	58.54
1061.882	-14.46
1062.127	-155.46
1062.373	-141.46
1062.618	129.54
1062.863	149.54
1063.108	-51.46
1063.353	-104.46
1063.598	-7.46
1063.843	-25.46
1064.088	-112.46
1064.333	-103.46
1064.578	46.54
1064.823	70.54
1065.068	-160.46
1065.313	-87.46
1065.558	56.54
1065.803	58.54
1066.048	-139.46
1066.293	-118.46
1066.538	99.54
1066.783	21.54
1067.028	-158.46
1067.273	-143.46
1067.518	44.54
1067.763	-17.46
1068.008	-166.46
1068.253	-100.46
1068.498	77.54
1068.743	13.54
1068.988	-140.46
1069.233	-129.46
1069.478	70.54
1069.723	114.54
1069.968	-56.46
1070.213	-13.46
1070.458	89.54
1070.703	-20.46
1070.948	-208.46
1071.193	-87.46
1071.438	77.54
1071.683	94.54
1071.928	-40.46
1072.173	-53.46
1072.418	14.54
1072.663	-18.46
1072.908	-135.46
1073.152	-76.46
1073.397	87.54
1073.642	-5.46
1073.887	-76.46
1074.132	43.54
1074.377	40.54
1074.622	4.54
1074.867	-131.46
1075.112	-48.46
1075.357	135.54
1075.601	-4.46
1075.846	-63.46
1076.091	39.54
1076.336	66.54
1076.581	-66.46
1076.826	-153.46
1077.071	-74.46
1077.315	156.54
1077.56	109.54
1077.805	-112.46
1078.05	-72.46
1078.295	-3.46
1078.54	-44.46
1078.785	-168.46
1079.029	-107.46
1079.274	64.54
1079.519	-54.46
1079.764	-163.46
1080.009	-49.46
1080.253	41.54
1080.498	-43.46
1080.743	-205.46
1080.988	-57.46
1081.233	139.54
1081.478	89.54
1081.722	-117.46
1081.967	14.54
1082.212	156.54
1082.457	42.54
1082.701	-112.46
1082.946	-75.46
1083.191	59.54
1083.436	-41.46
1083.681	-193.46
1083.925	-89.46
1084.17	13.54
1084.415	22.54
1084.66	-182.46
1084.904	-74.46
1085.149	23.54
1085.394	-35.46
1085.639	-216.46
1085.883	-94.46
1086.128	143.54
1086.373	144.54
1086.617	-88.46
1086.862	-139.46
1087.107	-6.46
1087.352	-74.46
1087.596	-157.46
1087.841	-24.46
1088.086	32.54
1088.33	13.54
1088.575	-227.46
1088.82	-83.46
1089.064	75.54
1089.309	-69.46
1089.554	-182.46
1089.798	-158.46
1090.043	56.54
1090.288	-4.46
1090.533	-200.46
1090.777	-125.46
1091.022	26.54
1091.266	48.54
1091.511	-123.46
1091.756	-37.46
1092	100.54
1092.245	83.54
1092.49	-152.46
1092.734	-95.46
1092.979	103.54
1093.224	-8.46
1093.468	-161.46
1093.713	-92.46
1093.957	18.54
1094.202	-44.46
1094.447	-216.46
1094.691	-95.46
1094.936	52.54
1095.181	-3.46
1095.425	-174.46
1095.67	-131.46
1095.914	20.54
1096.159	0.54
1096.403	-143.46
1096.648	-64.46
1096.893	51.54
1097.137	-83.46
1097.382	-216.46
1097.626	-139.46
1097.871	15.54
1098.115	-38.46
1098.36	-206.46
1098.605	-113.46
1098.849	-40.46
1099.094	-107.46
1099.338	-191.46
1099.583	-81.46
1099.827	123.54
1100.072	24.54
1100.316	-162.46
1100.561	-109.46
1100.805	46.54
1101.05	25.54
1101.294	-173.46
1101.539	-157.46
1101.783	6.54
1102.028	6.54
1102.273	-155.46
1102.517	-88.46
1102.761	43.54
1103.006	-62.46
1103.25	-263.46
1103.495	-170.46
1103.739	42.54
1103.984	98.54
1104.228	-102.46
1104.473	-15.46
1104.717	44.54
1104.962	-0.46
1105.206	-117.46
1105.451	-150.46
1105.695	16.54
1105.94	-28.46
1106.184	-154.46
1106.429	-89.46
1106.673	19.54
1106.917	60.54
1107.162	-166.46
1107.406	-23.46
1107.651	123.54
1107.895	-86.46
1108.14	-196.46
1108.384	-86.46
1108.628	114.54
1108.873	124.54
1109.117	-135.46
1109.362	-125.46
1109.606	-23.46
1109.85	-27.46
1110.095	-161.46
1110.339	-99.46
1110.584	88.54
1110.828	31.54
1111.072	-91.46
1111.317	-122.46
1111.561	-21.46
1111.806	-42.46
1112.05	-179.46
1112.294	-100.46
1112.539	28.54
1112.783	3.54
1113.027	-119.46
1113.272	-115.46
1113.516	-25.46
1113.76	-34.46
1114.005	-135.46
1114.249	-80.46
1114.493	58.54
1114.738	75.54
1114.982	-45.46
1115.226	-84.46
1115.471	-5.46
1115.715	-24.46
1115.959	-186.46
1116.204	-180.46
1116.448	7.54
1116.692	-88.46
1116.937	-173.46
1117.181	-16.46
1117.425	-16.46
1117.67	-77.46
1117.914	-157.46
1118.158	-106.46
1118.402	128.54
1118.647	50.54
1118.891	-107.46
1119.135	-52.46
1119.38	86.54
1119.624	16.54
1119.868	-143.46
1120.112	-157.46
1120.357	-64.46
1120.601	-119.46
1120.845	-215.46
1121.089	-144.46
1121.334	37.54
