Data from HR4C21111__33__10-00-10-843.txt Node

Date: Mon Feb 22 10:00:10 IST 2021
User: Kapil
Spectrometer: HR4C2111
Trigger mode: 4
Integration Time (sec): 2.300000E0
Scans to average: 1
Electric dark correction enabled: true
Nonlinearity correction enabled: false
Boxcar width: 0
XAxis mode: Wavelengths
Number of Pixels in Spectrum: 3648
>>>>>Begin Spectral Data<<<<<
189.472	-448.85
189.745	-448.85
190.017	-448.85
190.289	-454.85
190.561	-302.85
190.834	-19.85
191.106	-116.85
191.378	12.15
191.65	5.15
191.923	-149.85
192.195	-94.85
192.467	129.15
192.739	103.15
193.011	-19.85
193.284	98.15
193.556	175.15
193.828	-13.85
194.1	-107.85
194.372	-116.85
194.644	55.15
194.916	59.15
195.188	-154.85
195.46	-75.85
195.732	48.15
196.004	-18.85
196.276	-114.85
196.548	-50.85
196.82	79.15
197.092	67.15
197.364	-136.85
197.636	-95.85
197.908	26.15
198.18	-33.85
198.452	-82.85
198.724	-39.85
198.996	59.15
199.268	87.15
199.54	-16.85
199.811	-112.85
200.083	97.15
200.355	12.15
200.627	-204.85
200.899	-68.85
201.171	35.15
201.442	-68.85
201.714	-185.85
201.986	-91.85
202.258	62.15
202.529	123.15
202.801	-4.85
203.073	88.15
203.345	208.15
203.616	6.15
203.888	-149.85
204.16	-153.85
204.431	83.15
204.703	-1.85
204.974	-149.85
205.246	-5.85
205.518	180.15
205.789	4.15
206.061	-120.85
206.332	-92.85
206.604	10.15
206.876	77.15
207.147	141.15
207.419	31.15
207.69	126.15
207.962	-37.85
208.233	-178.85
208.505	11.15
208.776	186.15
209.047	80.15
209.319	-127.85
209.59	-96.85
209.862	100.15
210.133	-36.85
210.404	-167.85
210.676	-113.85
210.947	80.15
211.219	67.15
211.49	-122.85
211.761	-52.85
212.033	29.15
212.304	-46.85
212.575	-188.85
212.846	-86.85
213.118	29.15
213.389	-47.85
213.66	-111.85
213.931	-48.85
214.203	20.15
214.474	-40.85
214.745	-134.85
215.016	130.15
215.287	439.15
215.559	71.15
215.83	-119.85
216.101	-64.85
216.372	9.15
216.643	66.15
216.914	14.15
217.185	-84.85
217.456	152.15
217.727	23.15
217.998	-162.85
218.269	-53.85
218.54	40.15
218.811	-15.85
219.082	-100.85
219.353	-70.85
219.624	-13.85
219.895	-24.85
220.166	-129.85
220.437	-120.85
220.708	99.15
220.979	-6.85
221.25	-128.85
221.521	-85.85
221.792	23.15
222.063	73.15
222.334	30.15
222.604	171.15
222.875	166.15
223.146	96.15
223.417	-159.85
223.688	-24.85
223.958	118.15
224.229	-62.85
224.5	-181.85
224.771	-80.85
225.041	61.15
225.312	44.15
225.583	-105.85
225.854	-57.85
226.124	93.15
226.395	-17.85
226.666	-117.85
226.936	-100.85
227.207	56.15
227.478	-56.85
227.748	-85.85
228.019	63.15
228.289	265.15
228.56	-33.85
228.831	-45.85
229.101	44.15
229.372	76.15
229.642	-6.85
229.913	-152.85
230.183	-131.85
230.454	-0.85
230.724	9.15
230.995	-96.85
231.265	-63.85
231.536	73.15
231.806	63.15
232.076	-104.85
232.347	-115.85
232.617	46.15
232.888	23.15
233.158	-60.85
233.428	-110.85
233.699	-15.85
233.969	-47.85
234.239	-162.85
234.51	-81.85
234.78	48.15
235.05	-4.85
235.321	-123.85
235.591	-69.85
235.861	69.15
236.131	-53.85
236.402	-201.85
236.672	-93.85
236.942	41.15
237.212	46.15
237.483	-51.85
237.753	19.15
238.023	168.15
238.293	16.15
238.563	-84.85
238.833	-102.85
239.103	72.15
239.374	-15.85
239.644	-128.85
239.914	-14.85
240.184	139.15
240.454	-4.85
240.724	-160.85
240.994	-62.85
241.264	33.15
241.534	62.15
241.804	-23.85
242.074	-85.85
242.344	-35.85
242.614	-67.85
242.884	-180.85
243.154	-132.85
243.424	39.15
243.694	78.15
243.964	-90.85
244.234	-63.85
244.503	119.15
244.773	13.15
245.043	-207.85
245.313	-130.85
245.583	124.15
245.853	88.15
246.123	-174.85
246.392	-106.85
246.662	-1.85
246.932	-28.85
247.202	-171.85
247.471	-58.85
247.741	276.15
248.011	121.15
248.281	-141.85
248.55	-90.85
248.82	76.15
249.09	-2.85
249.359	-85.85
249.629	-74.85
249.899	61.15
250.168	71.15
250.438	-36.85
250.708	-126.85
250.977	67.15
251.247	68.15
251.516	-111.85
251.786	-64.85
252.055	118.15
252.325	21.15
252.595	-95.85
252.864	-66.85
253.134	60.15
253.403	-27.85
253.673	-163.85
253.942	-111.85
254.212	43.15
254.481	-7.85
254.75	-128.85
255.02	-68.85
255.289	87.15
255.559	-17.85
255.828	-139.85
256.097	-44.85
256.367	21.15
256.636	-81.85
256.906	-147.85
257.175	-21.85
257.444	261.15
257.714	69.15
257.983	-80.85
258.252	-39.85
258.521	3.15
258.791	48.15
259.06	-108.85
259.329	-47.85
259.598	66.15
259.868	-3.85
260.137	-121.85
260.406	-17.85
260.675	80.15
260.944	26.15
261.214	-131.85
261.483	-60.85
261.752	176.15
262.021	14.15
262.29	-160.85
262.559	-111.85
262.828	37.15
263.097	-30.85
263.366	-203.85
263.635	-100.85
263.905	133.15
264.174	12.15
264.443	-203.85
264.712	-103.85
264.981	39.15
265.25	-57.85
265.519	-150.85
265.788	-141.85
266.057	37.15
266.325	43.15
266.594	-67.85
266.863	-110.85
267.132	32.15
267.401	-2.85
267.67	-200.85
267.939	-151.85
268.208	31.15
268.477	73.15
268.745	-127.85
269.014	-107.85
269.283	122.15
269.552	28.15
269.821	-130.85
270.089	-28.85
270.358	-1.85
270.627	-22.85
270.896	-114.85
271.164	-150.85
271.433	26.15
271.702	93.15
271.971	-138.85
272.239	-133.85
272.508	16.15
272.777	-35.85
273.045	-23.85
273.314	-34.85
273.583	101.15
273.851	-1.85
274.12	-158.85
274.388	-131.85
274.657	1.15
274.926	9.15
275.194	-143.85
275.463	-58.85
275.731	40.15
276	181.15
276.268	403.15
276.537	-81.85
276.805	27.15
277.074	40.15
277.342	-152.85
277.611	-88.85
277.879	106.15
278.148	28.15
278.416	-134.85
278.684	-106.85
278.953	-20.85
279.221	-37.85
279.49	-191.85
279.758	-99.85
280.026	0.15
280.295	-2.85
280.563	-130.85
280.831	918.15
281.1	2229.15
281.368	211.15
281.636	-92.85
281.904	-102.85
282.173	-6.85
282.441	-57.85
282.709	-111.85
282.977	17.15
283.246	45.15
283.514	-44.85
283.782	-74.85
284.05	24.15
284.318	67.15
284.587	-9.85
284.855	-100.85
285.123	-31.85
285.391	69.15
285.659	50.15
285.927	-136.85
286.195	-66.85
286.463	61.15
286.732	3.15
287	-97.85
287.268	-38.85
287.536	24.15
287.804	-53.85
288.072	-147.85
288.34	-82.85
288.608	67.15
288.876	-20.85
289.144	-114.85
289.412	-17.85
289.68	46.15
289.948	-38.85
290.215	-110.85
290.483	-105.85
290.751	88.15
291.019	85.15
291.287	-165.85
291.555	-110.85
291.823	45.15
292.091	-17.85
292.358	-67.85
292.626	-24.85
292.894	88.15
293.162	63.15
293.43	-117.85
293.697	-83.85
293.965	49.15
294.233	-32.85
294.501	-162.85
294.768	-72.85
295.036	68.15
295.304	32.15
295.572	-131.85
295.839	-103.85
296.107	106.15
296.375	17.15
296.642	-117.85
296.91	-100.85
297.178	45.15
297.445	168.15
297.713	101.15
297.98	-69.85
298.248	-30.85
298.516	-55.85
298.783	-133.85
299.051	-129.85
299.318	13.15
299.586	-27.85
299.853	-84.85
300.121	-79.85
300.388	47.15
300.656	-10.85
300.923	-158.85
301.191	-48.85
301.458	48.15
301.726	-14.85
301.993	-132.85
302.26	-72.85
302.528	59.15
302.795	-6.85
303.063	-82.85
303.33	-51.85
303.597	38.15
303.865	29.15
304.132	-127.85
304.399	-126.85
304.667	-18.85
304.934	8.15
305.201	-114.85
305.469	-13.85
305.736	61.15
306.003	46.15
306.27	-40.85
306.538	-92.85
306.805	-2.85
307.072	-34.85
307.339	-90.85
307.606	-61.85
307.874	153.15
308.141	66.15
308.408	-126.85
308.675	-107.85
308.942	-45.85
309.209	-54.85
309.477	-129.85
309.744	-98.85
310.011	24.15
310.278	51.15
310.545	-17.85
310.812	-46.85
311.079	135.15
311.346	191.15
311.613	67.15
311.88	-38.85
312.147	-67.85
312.414	-39.85
312.681	-102.85
312.948	-10.85
313.215	132.15
313.482	76.15
313.749	-112.85
314.016	-208.85
314.283	-62.85
314.55	62.15
314.817	-90.85
315.083	-120.85
315.35	-73.85
315.617	-137.85
315.884	-132.85
316.151	79.15
316.418	164.15
316.684	-34.85
316.951	-187.85
317.218	-98.85
317.485	-4.85
317.752	-60.85
318.018	-123.85
318.285	-10.85
318.552	27.15
318.819	-50.85
319.085	-127.85
319.352	-50.85
319.619	45.15
319.885	-19.85
320.152	-187.85
320.419	-107.85
320.685	31.15
320.952	-25.85
321.219	-68.85
321.485	71.15
321.752	12.15
322.019	-50.85
322.285	27.15
322.552	3.15
322.818	136.15
323.085	-18.85
323.351	-128.85
323.618	-21.85
323.884	42.15
324.151	-61.85
324.417	-33.85
324.684	-85.85
324.95	-60.85
325.217	-135.85
325.483	-183.85
325.75	-43.85
326.016	8.15
326.283	-23.85
326.549	-186.85
326.815	-79.85
327.082	112.15
327.348	30.15
327.615	-105.85
327.881	-25.85
328.147	130.15
328.414	138.15
328.68	22.15
328.946	-32.85
329.212	13.15
329.479	-5.85
329.745	-107.85
330.011	-103.85
330.278	10.15
330.544	-33.85
330.81	-19.85
331.076	-31.85
331.342	-40.85
331.609	-27.85
331.875	-72.85
332.141	-81.85
332.407	41.15
332.673	-2.85
332.94	-3.85
333.206	-40.85
333.472	47.15
333.738	87.15
334.004	-105.85
334.27	-13.85
334.536	13.15
334.802	-16.85
335.068	-85.85
335.334	-7.85
335.6	26.15
335.866	-30.85
336.132	-165.85
336.398	-85.85
336.664	-20.85
336.93	-27.85
337.196	-78.85
337.462	-6.85
337.728	56.15
337.994	-22.85
338.26	-74.85
338.526	-19.85
338.792	-39.85
339.058	-25.85
339.324	-127.85
339.59	4.15
339.856	67.15
340.121	-56.85
340.387	-126.85
340.653	105.15
340.919	163.15
341.185	71.15
341.45	-63.85
341.716	30.15
341.982	120.15
342.248	-53.85
342.514	-81.85
342.779	4.15
343.045	41.15
343.311	4.15
343.576	-71.85
343.842	-18.85
344.108	146.15
344.374	35.15
344.639	-97.85
344.905	-90.85
345.171	58.15
345.436	-50.85
345.702	-81.85
345.967	82.15
346.233	115.15
346.499	43.15
346.764	-148.85
347.03	-45.85
347.295	-16.85
347.561	32.15
347.826	-12.85
348.092	-81.85
348.357	10.15
348.623	0.15
348.888	-93.85
349.154	-54.85
349.419	87.15
349.685	44.15
349.95	-31.85
350.216	0.15
350.481	91.15
350.747	-10.85
351.012	-124.85
351.277	-53.85
351.543	75.15
351.808	29.15
352.074	-131.85
352.339	-74.85
352.604	102.15
352.87	61.15
353.135	-70.85
353.4	-21.85
353.666	43.15
353.931	27.15
354.196	-83.85
354.461	-46.85
354.727	100.15
354.992	64.15
355.257	-76.85
355.522	39.15
355.788	77.15
356.053	132.15
356.318	-22.85
356.583	-37.85
356.848	166.15
357.113	288.15
357.379	36.15
357.644	20.15
357.909	194.15
358.174	200.15
358.439	-36.85
358.704	42.15
358.969	176.15
359.234	174.15
359.499	13.15
359.765	81.15
360.03	203.15
360.295	201.15
360.56	18.15
360.825	95.15
361.09	296.15
361.355	124.15
361.62	86.15
361.885	122.15
362.15	118.15
362.415	153.15
362.679	91.15
362.944	232.15
363.209	280.15
363.474	282.15
363.739	223.15
364.004	126.15
364.269	197.15
364.534	245.15
364.799	201.15
365.063	206.15
365.328	331.15
365.593	324.15
365.858	194.15
366.123	196.15
366.387	342.15
366.652	264.15
366.917	170.15
367.182	229.15
367.447	405.15
367.711	349.15
367.976	292.15
368.241	366.15
368.505	438.15
368.77	340.15
369.035	340.15
369.299	388.15
369.564	431.15
369.829	367.15
370.093	329.15
370.358	329.15
370.623	453.15
370.887	474.15
371.152	351.15
371.416	439.15
371.681	466.15
371.946	367.15
372.21	372.15
372.475	527.15
372.739	553.15
373.004	529.15
373.268	489.15
373.533	541.15
373.797	606.15
374.062	617.15
374.326	464.15
374.591	571.15
374.855	687.15
375.12	597.15
375.384	438.15
375.648	537.15
375.913	704.15
376.177	720.15
376.442	621.15
376.706	645.15
376.97	768.15
377.235	744.15
377.499	724.15
377.763	742.15
378.028	748.15
378.292	804.15
378.556	746.15
378.821	687.15
379.085	811.15
379.349	755.15
379.614	686.15
379.878	853.15
380.142	1032.15
380.406	924.15
380.671	951.15
380.935	1110.15
381.199	1234.15
381.463	1131.15
381.727	1064.15
381.991	1027.15
382.256	1096.15
382.52	1065.15
382.784	1099.15
383.048	1260.15
383.312	1192.15
383.576	1177.15
383.84	1131.15
384.104	1203.15
384.369	1308.15
384.633	1197.15
384.897	1132.15
385.161	1271.15
385.425	1387.15
385.689	1324.15
385.953	1309.15
386.217	1335.15
386.481	1434.15
386.745	1483.15
387.009	1450.15
387.273	1422.15
387.537	1485.15
387.801	1539.15
388.064	1494.15
388.328	1642.15
388.592	1701.15
388.856	1657.15
389.12	1591.15
389.384	1673.15
389.648	1719.15
389.912	1789.15
390.176	1829.15
390.439	1968.15
390.703	1817.15
390.967	1786.15
391.231	1699.15
391.495	1782.15
391.758	1913.15
392.022	1965.15
392.286	1854.15
392.55	1868.15
392.813	1990.15
393.077	2050.15
393.341	2006.15
393.605	2129.15
393.868	2063.15
394.132	2099.15
394.396	2071.15
394.659	2239.15
394.923	2202.15
395.187	2111.15
395.45	2123.15
395.714	2228.15
395.978	2269.15
396.241	2315.15
396.505	2264.15
396.768	2374.15
397.032	2416.15
397.295	2450.15
397.559	2381.15
397.823	2362.15
398.086	2519.15
398.35	2457.15
398.613	2376.15
398.877	2494.15
399.14	2667.15
399.404	2724.15
399.667	2630.15
399.931	2617.15
400.194	2679.15
400.457	2704.15
400.721	2716.15
400.984	2816.15
401.248	2747.15
401.511	2715.15
401.775	2620.15
402.038	2697.15
402.301	2963.15
402.565	2919.15
402.828	2764.15
403.091	2843.15
403.355	3047.15
403.618	2993.15
403.881	2983.15
404.145	3017.15
404.408	3083.15
404.671	3049.15
404.934	3133.15
405.198	3172.15
405.461	3201.15
405.724	3261.15
405.987	3261.15
406.251	3337.15
406.514	3471.15
406.777	3316.15
407.04	3223.15
407.303	3197.15
407.567	3365.15
407.83	3434.15
408.093	3274.15
408.356	3392.15
408.619	3464.15
408.882	3555.15
409.145	3495.15
409.408	3489.15
409.672	3571.15
409.935	3521.15
410.198	3393.15
410.461	3502.15
410.724	3739.15
410.987	3663.15
411.25	3481.15
411.513	3621.15
411.776	3728.15
412.039	3625.15
412.302	3560.15
412.565	3589.15
412.828	3654.15
413.091	3682.15
413.354	3574.15
413.617	3588.15
413.879	3646.15
414.142	3629.15
414.405	3475.15
414.668	3512.15
414.931	3647.15
415.194	3602.15
415.457	3505.15
415.72	3614.15
415.983	3606.15
416.245	3647.15
416.508	3539.15
416.771	3465.15
417.034	3622.15
417.297	3631.15
417.559	3559.15
417.822	3526.15
418.085	3645.15
418.348	3619.15
418.61	3514.15
418.873	3498.15
419.136	3552.15
419.399	3561.15
419.661	3589.15
419.924	3549.15
420.187	3652.15
420.449	3672.15
420.712	3595.15
420.975	3605.15
421.237	3691.15
421.5	3711.15
421.762	3806.15
422.025	3805.15
422.288	3889.15
422.55	3731.15
422.813	3617.15
423.075	3724.15
423.338	3823.15
423.601	3905.15
423.863	3841.15
424.126	3890.15
424.388	4008.15
424.651	4008.15
424.913	3966.15
425.176	3973.15
425.438	3965.15
425.701	3945.15
425.963	3821.15
426.225	3829.15
426.488	3917.15
426.75	3982.15
427.013	3974.15
427.275	4020.15
427.538	4017.15
427.8	4044.15
428.062	3979.15
428.325	4007.15
428.587	4074.15
428.849	4058.15
429.112	4074.15
429.374	4050.15
429.636	4067.15
429.899	4199.15
430.161	4088.15
430.423	4126.15
430.686	4295.15
430.948	4294.15
431.21	4143.15
431.472	4098.15
431.735	4212.15
431.997	4250.15
432.259	4225.15
432.521	4118.15
432.783	4266.15
433.046	4253.15
433.308	4107.15
433.57	4171.15
433.832	4413.15
434.094	4273.15
434.356	4139.15
434.618	4259.15
434.881	4312.15
435.143	4405.15
435.405	4399.15
435.667	4381.15
435.929	4374.15
436.191	4363.15
436.453	4312.15
436.715	4421.15
436.977	4556.15
437.239	4638.15
437.501	4502.15
437.763	4454.15
438.025	4535.15
438.287	4473.15
438.549	4454.15
438.811	4447.15
439.073	4467.15
439.335	4523.15
439.597	4424.15
439.859	4421.15
440.121	4551.15
440.383	4464.15
440.645	4471.15
440.907	4536.15
441.168	4540.15
441.43	4510.15
441.692	4535.15
441.954	4618.15
442.216	4631.15
442.478	4549.15
442.74	4426.15
443.001	4622.15
443.263	4782.15
443.525	4577.15
443.787	4430.15
444.048	4439.15
444.31	4488.15
444.572	4573.15
444.834	4544.15
445.095	4515.15
445.357	4711.15
445.619	4539.15
445.881	4379.15
446.142	4459.15
446.404	4484.15
446.666	4519.15
446.927	4505.15
447.189	4649.15
447.451	4717.15
447.712	4540.15
447.974	4388.15
448.235	4416.15
448.497	4496.15
448.759	4459.15
449.02	4463.15
449.282	4439.15
449.543	4590.15
449.805	4642.15
450.066	4401.15
450.328	4517.15
450.59	4716.15
450.851	4481.15
451.113	4383.15
451.374	4336.15
451.636	4588.15
451.897	4619.15
452.158	4571.15
452.42	4629.15
452.681	4608.15
452.943	4419.15
453.204	4448.15
453.466	4472.15
453.727	4451.15
453.988	4506.15
454.25	4446.15
454.511	4511.15
454.773	4605.15
455.034	4708.15
455.295	4429.15
455.557	4585.15
455.818	4624.15
456.079	4563.15
456.341	4632.15
456.602	4745.15
456.863	4790.15
457.124	4590.15
457.386	4463.15
457.647	4434.15
457.908	4549.15
458.169	4696.15
458.431	4508.15
458.692	4601.15
458.953	4659.15
459.214	4660.15
459.476	4812.15
459.737	4949.15
459.998	4932.15
460.259	4798.15
460.52	4760.15
460.781	4900.15
461.043	5078.15
461.304	4904.15
461.565	4721.15
461.826	4798.15
462.087	4954.15
462.348	5133.15
462.609	5094.15
462.87	5070.15
463.131	4953.15
463.392	5195.15
463.653	5232.15
463.914	5198.15
464.175	5221.15
464.436	5219.15
464.697	5226.15
464.958	5144.15
465.219	5196.15
465.48	5279.15
465.741	5318.15
466.002	5194.15
466.263	5401.15
466.524	5450.15
466.785	5296.15
467.046	5381.15
467.307	5528.15
467.568	5628.15
467.829	5609.15
468.089	5576.15
468.35	5624.15
468.611	5580.15
468.872	5507.15
469.133	5714.15
469.394	5931.15
469.655	5977.15
469.915	5871.15
470.176	5765.15
470.437	5842.15
470.698	6028.15
470.958	6047.15
471.219	6116.15
471.48	6232.15
471.741	6316.15
472.001	6287.15
472.262	6266.15
472.523	6499.15
472.784	6633.15
473.044	6500.15
473.305	6535.15
473.566	6557.15
473.826	6685.15
474.087	6659.15
474.348	6719.15
474.608	6896.15
474.869	6883.15
475.129	6823.15
475.39	6917.15
475.651	7052.15
475.911	7241.15
476.172	7118.15
476.432	7220.15
476.693	7489.15
476.953	7332.15
477.214	7293.15
477.475	7393.15
477.735	7430.15
477.996	7548.15
478.256	7432.15
478.517	7608.15
478.777	7752.15
479.038	7913.15
479.298	7958.15
479.558	7952.15
479.819	8108.15
480.079	8108.15
480.34	8120.15
480.6	8124.15
480.861	8283.15
481.121	8277.15
481.381	8259.15
481.642	8405.15
481.902	8428.15
482.162	8377.15
482.423	8422.15
482.683	8615.15
482.943	8751.15
483.204	8721.15
483.464	8654.15
483.724	8637.15
483.985	8776.15
484.245	8916.15
484.505	8874.15
484.765	8998.15
485.026	9071.15
485.286	9155.15
485.546	9169.15
485.806	9179.15
486.067	9200.15
486.327	9143.15
486.587	9158.15
486.847	9262.15
487.107	9336.15
487.368	9336.15
487.628	9337.15
487.888	9471.15
488.148	9546.15
488.408	9452.15
488.668	9486.15
488.928	9507.15
489.188	9589.15
489.449	9625.15
489.709	9487.15
489.969	9512.15
490.229	9700.15
490.489	9785.15
490.749	9635.15
491.009	9541.15
491.269	9677.15
491.529	9658.15
491.789	9688.15
492.049	9827.15
492.309	9901.15
492.569	9793.15
492.829	9815.15
493.089	9748.15
493.349	9946.15
493.609	9879.15
493.869	9776.15
494.129	9893.15
494.389	9974.15
494.648	9891.15
494.908	9787.15
495.168	9886.15
495.428	10040.15
495.688	10011.15
495.948	9897.15
496.208	9921.15
496.467	9931.15
496.727	9949.15
496.987	9971.15
497.247	10022.15
497.507	10090.15
497.767	10107.15
498.026	9932.15
498.286	10044.15
498.546	10176.15
498.806	10118.15
499.065	10122.15
499.325	9968.15
499.585	9997.15
499.845	10064.15
500.104	10057.15
500.364	10081.15
500.624	10129.15
500.883	10131.15
501.143	10230.15
501.403	10221.15
501.662	10264.15
501.922	10172.15
502.182	9966.15
502.441	9943.15
502.701	10094.15
502.96	10211.15
503.22	10067.15
503.48	10055.15
503.739	10150.15
503.999	10090.15
504.258	10002.15
504.518	10137.15
504.777	10191.15
505.037	10166.15
505.296	10091.15
505.556	10049.15
505.815	10187.15
506.075	10317.15
506.334	10228.15
506.594	10011.15
506.853	10088.15
507.113	10102.15
507.372	9976.15
507.632	10047.15
507.891	10172.15
508.151	10215.15
508.41	10003.15
508.669	10009.15
508.929	10200.15
509.188	10142.15
509.447	10091.15
509.707	10039.15
509.966	10136.15
510.226	10169.15
510.485	10129.15
510.744	10164.15
511.004	10227.15
511.263	10089.15
511.522	10029.15
511.781	9997.15
512.041	10113.15
512.3	10100.15
512.559	10192.15
512.818	10257.15
513.078	10226.15
513.337	10212.15
513.596	10122.15
513.855	10127.15
514.115	10212.15
514.374	10130.15
514.633	10028.15
514.892	10087.15
515.151	10263.15
515.41	10329.15
515.67	10213.15
515.929	10227.15
516.188	10345.15
516.447	10226.15
516.706	10140.15
516.965	10207.15
517.224	10267.15
517.483	10273.15
517.743	10153.15
518.002	10158.15
518.261	10318.15
518.52	10317.15
518.779	10245.15
519.038	10168.15
519.297	10235.15
519.556	10279.15
519.815	10188.15
520.074	10173.15
520.333	10345.15
520.592	10325.15
520.851	10154.15
521.11	10313.15
521.369	10467.15
521.628	10302.15
521.887	10235.15
522.145	10265.15
522.404	10280.15
522.663	10293.15
522.922	10171.15
523.181	10172.15
523.44	10264.15
523.699	10321.15
523.958	10192.15
524.217	10143.15
524.475	10144.15
524.734	10144.15
524.993	10111.15
525.252	10182.15
525.511	10281.15
525.769	10190.15
526.028	10105.15
526.287	10191.15
526.546	10255.15
526.805	10254.15
527.063	10146.15
527.322	10108.15
527.581	10228.15
527.839	10205.15
528.098	10153.15
528.357	10214.15
528.616	10283.15
528.874	10276.15
529.133	10179.15
529.392	10217.15
529.65	10177.15
529.909	10205.15
530.168	10110.15
530.426	10174.15
530.685	10283.15
530.943	10208.15
531.202	10100.15
531.461	10085.15
531.719	10172.15
531.978	10152.15
532.236	10040.15
532.495	10128.15
532.753	10244.15
533.012	10219.15
533.271	10107.15
533.529	10074.15
533.788	10173.15
534.046	10172.15
534.305	10091.15
534.563	10277.15
534.822	10354.15
535.08	10235.15
535.338	10141.15
535.597	10192.15
535.855	10292.15
536.114	10215.15
536.372	10146.15
536.631	10263.15
536.889	10327.15
537.147	10262.15
537.406	10120.15
537.664	10271.15
537.923	10315.15
538.181	10325.15
538.439	10206.15
538.698	10250.15
538.956	10252.15
539.214	10260.15
539.473	10249.15
539.731	10360.15
539.989	10475.15
540.248	10372.15
540.506	10281.15
540.764	10330.15
541.022	10402.15
541.281	10549.15
541.539	10483.15
541.797	10427.15
542.055	10504.15
542.314	10595.15
542.572	10618.15
542.83	10521.15
543.088	10623.15
543.346	10585.15
543.604	10461.15
543.863	10607.15
544.121	10747.15
544.379	10726.15
544.637	10589.15
544.895	10688.15
545.153	10833.15
545.411	10713.15
545.67	10612.15
545.928	10765.15
546.186	10920.15
546.444	10944.15
546.702	10880.15
546.96	10967.15
547.218	11005.15
547.476	10929.15
547.734	10907.15
547.992	11073.15
548.25	11211.15
548.508	11138.15
548.766	11130.15
549.024	11136.15
549.282	11207.15
549.54	11323.15
549.798	11296.15
550.056	11309.15
550.314	11402.15
550.572	11372.15
550.83	11363.15
551.088	11508.15
551.346	11558.15
551.603	11594.15
551.861	11557.15
552.119	11608.15
552.377	11712.15
552.635	11651.15
552.893	11594.15
553.151	11701.15
553.409	11900.15
553.666	11914.15
553.924	11837.15
554.182	11871.15
554.44	11983.15
554.698	11997.15
554.955	11939.15
555.213	11937.15
555.471	12076.15
555.729	12096.15
555.986	11919.15
556.244	12034.15
556.502	12264.15
556.76	12116.15
557.017	12143.15
557.275	12199.15
557.533	12391.15
557.79	12335.15
558.048	12193.15
558.306	12260.15
558.563	12379.15
558.821	12321.15
559.079	12254.15
559.336	12364.15
559.594	12420.15
559.852	12332.15
560.109	12311.15
560.367	12468.15
560.624	12512.15
560.882	12450.15
561.14	12499.15
561.397	12592.15
561.655	12469.15
561.912	12528.15
562.17	12491.15
562.427	12475.15
562.685	12609.15
562.942	12596.15
563.2	12494.15
563.457	12585.15
563.715	12640.15
563.972	12719.15
564.23	12566.15
564.487	12514.15
564.745	12639.15
565.002	12604.15
565.26	12511.15
565.517	12461.15
565.774	12501.15
566.032	12614.15
566.289	12542.15
566.547	12548.15
566.804	12680.15
567.061	12602.15
567.319	12492.15
567.576	12625.15
567.833	12707.15
568.091	12669.15
568.348	12538.15
568.605	12575.15
568.863	12613.15
569.12	12575.15
569.377	12488.15
569.635	12418.15
569.892	12461.15
570.149	12416.15
570.406	12314.15
570.664	12368.15
570.921	12509.15
571.178	12404.15
571.435	12284.15
571.693	12328.15
571.95	12367.15
572.207	12177.15
572.464	12117.15
572.721	12201.15
572.979	12275.15
573.236	12155.15
573.493	12079.15
573.75	12077.15
574.007	12113.15
574.264	12024.15
574.521	11947.15
574.779	11888.15
575.036	11956.15
575.293	11951.15
575.55	11840.15
575.807	11809.15
576.064	11780.15
576.321	11743.15
576.578	11563.15
576.835	11546.15
577.092	11763.15
577.349	11636.15
577.606	11438.15
577.863	11378.15
578.12	11495.15
578.377	11475.15
578.634	11172.15
578.891	11212.15
579.148	11261.15
579.405	11149.15
579.662	11012.15
579.919	11090.15
580.176	11029.15
580.433	10976.15
580.69	10863.15
580.947	10838.15
581.204	10891.15
581.461	10729.15
581.717	10599.15
581.974	10665.15
582.231	10666.15
582.488	10564.15
582.745	10325.15
583.002	10273.15
583.259	10462.15
583.515	10395.15
583.772	10196.15
584.029	10161.15
584.286	10199.15
584.543	10021.15
584.799	10019.15
585.056	10023.15
585.313	10067.15
585.57	9993.15
585.826	9772.15
586.083	9850.15
586.34	10003.15
586.597	9678.15
586.853	9499.15
587.11	9519.15
587.367	9650.15
587.623	9656.15
587.88	9504.15
588.137	9384.15
588.393	9495.15
588.65	9324.15
588.907	9117.15
589.163	9220.15
589.42	9233.15
589.677	9170.15
589.933	9035.15
590.19	9069.15
590.446	9199.15
590.703	9174.15
590.96	8880.15
591.216	8799.15
591.473	8882.15
591.729	8825.15
591.986	8788.15
592.242	8833.15
592.499	9036.15
592.755	8833.15
593.012	8615.15
593.268	8695.15
593.525	8694.15
593.781	8731.15
594.038	8611.15
594.294	8601.15
594.551	8566.15
594.807	8551.15
595.064	8515.15
595.32	8518.15
595.576	8621.15
595.833	8594.15
596.089	8400.15
596.346	8475.15
596.602	8558.15
596.858	8614.15
597.115	8444.15
597.371	8515.15
597.628	8496.15
597.884	8427.15
598.14	8327.15
598.397	8431.15
598.653	8519.15
598.909	8396.15
599.166	8236.15
599.422	8334.15
599.678	8360.15
599.934	8299.15
600.191	8200.15
600.447	8236.15
600.703	8292.15
600.959	8229.15
601.216	8063.15
601.472	8183.15
601.728	8241.15
601.984	8195.15
602.241	8132.15
602.497	8190.15
602.753	8269.15
603.009	8161.15
603.265	8085.15
603.521	8208.15
603.778	8311.15
604.034	8135.15
604.29	8032.15
604.546	8119.15
604.802	8259.15
605.058	8145.15
605.314	8020.15
605.571	8104.15
605.827	8140.15
606.083	8117.15
606.339	7999.15
606.595	8107.15
606.851	8241.15
607.107	8251.15
607.363	8065.15
607.619	8054.15
607.875	8198.15
608.131	8151.15
608.387	7941.15
608.643	8015.15
608.899	8069.15
609.155	7994.15
609.411	7950.15
609.667	7973.15
609.923	8033.15
610.179	8001.15
610.435	7844.15
610.691	7881.15
610.947	7978.15
611.203	7894.15
611.459	7839.15
611.714	7924.15
611.97	8116.15
612.226	7991.15
612.482	7804.15
612.738	7846.15
612.994	8007.15
613.25	7809.15
613.505	7688.15
613.761	7694.15
614.017	7817.15
614.273	7808.15
614.529	7707.15
614.785	7648.15
615.04	7699.15
615.296	7646.15
615.552	7653.15
615.808	7677.15
616.063	7745.15
616.319	7690.15
616.575	7545.15
616.831	7633.15
617.086	7835.15
617.342	7741.15
617.598	7591.15
617.854	7626.15
618.109	7652.15
618.365	7449.15
618.621	7400.15
618.876	7495.15
619.132	7571.15
619.388	7527.15
619.643	7316.15
619.899	7412.15
620.155	7509.15
620.41	7492.15
620.666	7322.15
620.921	7349.15
621.177	7419.15
621.433	7411.15
621.688	7351.15
621.944	7251.15
622.199	7309.15
622.455	7366.15
622.71	7188.15
622.966	7168.15
623.221	7186.15
623.477	7189.15
623.732	7171.15
623.988	7100.15
624.243	7200.15
624.499	7143.15
624.754	7014.15
625.01	7064.15
625.265	7151.15
625.521	7165.15
625.776	6967.15
626.032	6960.15
626.287	7028.15
626.543	7005.15
626.798	6890.15
627.053	6885.15
627.309	6926.15
627.564	6881.15
627.82	6893.15
628.075	6972.15
628.33	6859.15
628.586	6727.15
628.841	6619.15
629.096	6714.15
629.352	6776.15
629.607	6704.15
629.862	6661.15
630.118	6743.15
630.373	6663.15
630.628	6685.15
630.884	6526.15
631.139	6566.15
631.394	6680.15
631.649	6661.15
631.905	6487.15
632.16	6504.15
632.415	6685.15
632.67	6501.15
632.926	6404.15
633.181	6327.15
633.436	6455.15
633.691	6437.15
633.946	6267.15
634.202	6305.15
634.457	6400.15
634.712	6331.15
634.967	6228.15
635.222	6208.15
635.477	6318.15
635.733	6281.15
635.988	6136.15
636.243	6149.15
636.498	6246.15
636.753	6224.15
637.008	6040.15
637.263	6111.15
637.518	6182.15
637.773	6080.15
638.028	6019.15
638.283	5998.15
638.539	6065.15
638.794	6056.15
639.049	5927.15
639.304	5924.15
639.559	5911.15
639.814	5924.15
640.069	5832.15
640.324	5857.15
640.579	5916.15
640.834	5875.15
641.089	5768.15
641.344	5828.15
641.598	5933.15
641.853	5849.15
642.108	5688.15
642.363	5549.15
642.618	5734.15
642.873	5640.15
643.128	5519.15
643.383	5551.15
643.638	5599.15
643.893	5688.15
644.148	5655.15
644.402	5520.15
644.657	5580.15
644.912	5482.15
645.167	5504.15
645.422	5509.15
645.677	5496.15
645.931	5518.15
646.186	5511.15
646.441	5387.15
646.696	5365.15
646.951	5398.15
647.205	5354.15
647.46	5297.15
647.715	5367.15
647.97	5547.15
648.224	5594.15
648.479	5399.15
648.734	5491.15
648.989	5418.15
649.243	5356.15
649.498	5300.15
649.753	5317.15
650.007	5359.15
650.262	5268.15
650.517	5257.15
650.771	5315.15
651.026	5235.15
651.281	5078.15
651.535	5209.15
651.79	5242.15
652.045	5226.15
652.299	5107.15
652.554	5091.15
652.809	5176.15
653.063	5332.15
653.318	5223.15
653.572	5070.15
653.827	5200.15
654.081	5146.15
654.336	5022.15
654.591	4992.15
654.845	5071.15
655.1	5045.15
655.354	5012.15
655.609	5091.15
655.863	5200.15
656.118	5134.15
656.372	4909.15
656.627	4980.15
656.881	5095.15
657.136	4993.15
657.39	4891.15
657.645	5067.15
657.899	5184.15
658.153	5008.15
658.408	4885.15
658.662	4970.15
658.917	5019.15
659.171	4908.15
659.426	4836.15
659.68	4874.15
659.934	4999.15
660.189	5004.15
660.443	4884.15
660.697	5016.15
660.952	5049.15
661.206	4894.15
661.46	4804.15
661.715	4875.15
661.969	4949.15
662.223	4947.15
662.478	4854.15
662.732	4918.15
662.986	4948.15
663.241	4937.15
663.495	4816.15
663.749	4848.15
664.003	5031.15
664.258	4931.15
664.512	4829.15
664.766	4904.15
665.02	4952.15
665.275	5000.15
665.529	4843.15
665.783	4892.15
666.037	4963.15
666.291	4932.15
666.546	4843.15
666.8	4889.15
667.054	4894.15
667.308	4981.15
667.562	4821.15
667.816	4850.15
668.071	4990.15
668.325	4871.15
668.579	4864.15
668.833	4994.15
669.087	5108.15
669.341	4987.15
669.595	4839.15
669.849	4934.15
670.103	4995.15
670.357	4961.15
670.612	4914.15
670.866	4911.15
671.12	5005.15
671.374	5000.15
671.628	4956.15
671.882	4913.15
672.136	4995.15
672.39	5021.15
672.644	4849.15
672.898	5044.15
673.152	5161.15
673.406	5062.15
673.66	4984.15
673.914	5050.15
674.168	5151.15
674.422	5099.15
674.675	4985.15
674.929	5043.15
675.183	5151.15
675.437	5102.15
675.691	5040.15
675.945	5118.15
676.199	5246.15
676.453	5128.15
676.707	5005.15
676.961	5039.15
677.214	5129.15
677.468	5176.15
677.722	5183.15
677.976	5168.15
678.23	5254.15
678.484	5234.15
678.737	5125.15
678.991	5177.15
679.245	5243.15
679.499	5221.15
679.753	5132.15
680.006	5223.15
680.26	5359.15
680.514	5333.15
680.768	5191.15
681.021	5271.15
681.275	5310.15
681.529	5292.15
681.783	5208.15
682.036	5286.15
682.29	5310.15
682.544	5284.15
682.797	5215.15
683.051	5237.15
683.305	5329.15
683.559	5359.15
683.812	5348.15
684.066	5393.15
684.32	5447.15
684.573	5450.15
684.827	5472.15
685.08	5456.15
685.334	5550.15
685.588	5463.15
685.841	5336.15
686.095	5485.15
686.348	5520.15
686.602	5516.15
686.856	5507.15
687.109	5481.15
687.363	5503.15
687.616	5432.15
687.87	5365.15
688.123	5421.15
688.377	5546.15
688.63	5539.15
688.884	5550.15
689.137	5610.15
689.391	5625.15
689.644	5465.15
689.898	5396.15
690.151	5440.15
690.405	5595.15
690.658	5533.15
690.912	5515.15
691.165	5477.15
691.419	5550.15
691.672	5597.15
691.926	5555.15
692.179	5547.15
692.432	5640.15
692.686	5620.15
692.939	5512.15
693.193	5545.15
693.446	5704.15
693.699	5679.15
693.953	5668.15
694.206	5647.15
694.459	5665.15
694.713	5679.15
694.966	5568.15
695.219	5564.15
695.473	5694.15
695.726	5573.15
695.979	5540.15
696.233	5696.15
696.486	5734.15
696.739	5655.15
696.992	5550.15
697.246	5678.15
697.499	5761.15
697.752	5567.15
698.006	5532.15
698.259	5703.15
698.512	5662.15
698.765	5603.15
699.018	5559.15
699.272	5607.15
699.525	5591.15
699.778	5505.15
700.031	5474.15
700.284	5515.15
700.538	5626.15
700.791	5585.15
701.044	5576.15
701.297	5581.15
701.55	5598.15
701.803	5555.15
702.056	5454.15
702.31	5525.15
702.563	5620.15
702.816	5541.15
703.069	5404.15
703.322	5487.15
703.575	5573.15
703.828	5592.15
704.081	5521.15
704.334	5490.15
704.587	5557.15
704.84	5525.15
705.093	5534.15
705.346	5661.15
705.599	5653.15
705.853	5636.15
706.106	5629.15
706.359	5866.15
706.612	5591.15
706.865	5637.15
707.118	5441.15
707.37	5485.15
707.623	5615.15
707.876	5563.15
708.129	5517.15
708.382	5585.15
708.635	5649.15
708.888	5471.15
709.141	5337.15
709.394	5409.15
709.647	5506.15
709.9	5423.15
710.153	5337.15
710.406	5459.15
710.658	5548.15
710.911	5494.15
711.164	5342.15
711.417	5323.15
711.67	5368.15
711.923	5471.15
712.176	5348.15
712.428	5320.15
712.681	5451.15
712.934	5448.15
713.187	5342.15
713.44	5314.15
713.692	5393.15
713.945	5338.15
714.198	5270.15
714.451	5222.15
714.704	5372.15
714.956	5383.15
715.209	5407.15
715.462	5349.15
715.715	5341.15
715.967	5310.15
716.22	5165.15
716.473	5185.15
716.725	5332.15
716.978	5297.15
717.231	5260.15
717.484	5255.15
717.736	5195.15
717.989	5167.15
718.242	5086.15
718.494	5151.15
718.747	5300.15
718.999	5208.15
719.252	5201.15
719.505	5182.15
719.757	5218.15
720.01	5174.15
720.263	5060.15
720.515	5036.15
720.768	5120.15
721.02	5123.15
721.273	4964.15
721.525	4911.15
721.778	5048.15
722.031	5122.15
722.283	4906.15
722.536	4930.15
722.788	5035.15
723.041	4966.15
723.293	4887.15
723.546	4886.15
723.798	4971.15
724.051	5035.15
724.303	4944.15
724.556	4951.15
724.808	5056.15
725.061	4990.15
725.313	4895.15
725.566	4876.15
725.818	4885.15
726.071	4871.15
726.323	4704.15
726.575	4775.15
726.828	4912.15
727.08	4924.15
727.333	4735.15
727.585	4756.15
727.837	4815.15
728.09	4809.15
728.342	4680.15
728.595	4780.15
728.847	4934.15
729.099	4664.15
729.352	4650.15
729.604	4651.15
729.856	4780.15
730.109	4728.15
730.361	4606.15
730.613	4667.15
730.866	4785.15
731.118	4604.15
731.37	4556.15
731.622	4558.15
731.875	4621.15
732.127	4684.15
732.379	4608.15
732.631	4653.15
732.884	4661.15
733.136	4582.15
733.388	4459.15
733.64	4484.15
733.893	4615.15
734.145	4515.15
734.397	4351.15
734.649	4358.15
734.901	4503.15
735.154	4438.15
735.406	4309.15
735.658	4391.15
735.91	4517.15
736.162	4471.15
736.414	4307.15
736.667	4370.15
736.919	4365.15
737.171	4263.15
737.423	4217.15
737.675	4309.15
737.927	4423.15
738.179	4331.15
738.431	4269.15
738.684	4232.15
738.936	4302.15
739.188	4349.15
739.44	4170.15
739.692	4161.15
739.944	4180.15
740.196	4181.15
740.448	4100.15
740.7	4113.15
740.952	4140.15
741.204	4143.15
741.456	4064.15
741.708	4096.15
741.96	4133.15
742.212	4203.15
742.464	4148.15
742.716	4040.15
742.968	4132.15
743.22	4080.15
743.472	4015.15
743.724	4071.15
743.976	4214.15
744.228	4155.15
744.48	3913.15
744.732	3970.15
744.983	4104.15
745.235	4070.15
745.487	4028.15
745.739	4077.15
745.991	4042.15
746.243	4099.15
746.495	3945.15
746.747	3916.15
746.999	4026.15
747.25	4045.15
747.502	4004.15
747.754	4077.15
748.006	3972.15
748.258	4090.15
748.51	4107.15
748.761	3958.15
749.013	4014.15
749.265	4078.15
749.517	4034.15
749.768	4104.15
750.02	4077.15
750.272	4007.15
750.524	3828.15
750.776	3788.15
751.027	3982.15
751.279	4015.15
751.531	3788.15
751.782	3871.15
752.034	3988.15
752.286	3896.15
752.538	3739.15
752.789	3819.15
753.041	3900.15
753.293	3860.15
753.544	3780.15
753.796	3841.15
754.048	3920.15
754.299	3881.15
754.551	3845.15
754.803	3757.15
755.054	3804.15
755.306	3876.15
755.558	3737.15
755.809	3731.15
756.061	3864.15
756.312	3794.15
756.564	3745.15
756.816	3725.15
757.067	3764.15
757.319	3746.15
757.57	3705.15
757.822	3757.15
758.073	3800.15
758.325	3758.15
758.577	3604.15
758.828	3624.15
759.08	3842.15
759.331	3769.15
759.583	3571.15
759.834	3665.15
760.086	3619.15
760.337	3627.15
760.589	3587.15
760.84	3591.15
761.092	3642.15
761.343	3611.15
761.595	3488.15
761.846	3615.15
762.097	3615.15
762.349	3582.15
762.6	3444.15
762.852	3579.15
763.103	3702.15
763.355	3519.15
763.606	3465.15
763.857	3569.15
764.109	3677.15
764.36	3563.15
764.612	3465.15
764.863	3549.15
765.114	3591.15
765.366	3461.15
765.617	3334.15
765.868	3393.15
766.12	3567.15
766.371	3499.15
766.622	3316.15
766.874	3423.15
767.125	3545.15
767.376	3402.15
767.628	3289.15
767.879	3377.15
768.13	3469.15
768.381	3442.15
768.633	3389.15
768.884	3407.15
769.135	3454.15
769.386	3376.15
769.638	3310.15
769.889	3365.15
770.14	3437.15
770.391	3321.15
770.643	3271.15
770.894	3261.15
771.145	3348.15
771.396	3256.15
771.647	3206.15
771.899	3310.15
772.15	3354.15
772.401	3301.15
772.652	3135.15
772.903	3183.15
773.154	3528.15
773.406	3725.15
773.657	3181.15
773.908	3182.15
774.159	3290.15
774.41	3302.15
774.661	3143.15
774.912	3179.15
775.163	3295.15
775.414	3307.15
775.666	3050.15
775.917	3072.15
776.168	3140.15
776.419	3144.15
776.67	3082.15
776.921	3054.15
777.172	3107.15
777.423	3136.15
777.674	3155.15
777.925	3167.15
778.176	3101.15
778.427	3088.15
778.678	2988.15
778.929	3019.15
779.18	3132.15
779.431	3025.15
779.682	3023.15
779.933	3041.15
780.184	3041.15
780.435	3024.15
780.686	3013.15
780.937	3065.15
781.188	3068.15
781.439	3153.15
781.69	3102.15
781.941	3049.15
782.191	3054.15
782.442	3009.15
782.693	2885.15
782.944	2892.15
783.195	2992.15
783.446	3003.15
783.697	3024.15
783.948	2889.15
784.199	2907.15
784.449	2887.15
784.7	2867.15
784.951	2895.15
785.202	3045.15
785.453	3009.15
785.704	2808.15
785.954	2791.15
786.205	2872.15
786.456	2825.15
786.707	2739.15
786.958	2771.15
787.208	2846.15
787.459	2799.15
787.71	2792.15
787.961	2785.15
788.211	2841.15
788.462	2870.15
788.713	2800.15
788.964	2762.15
789.214	2843.15
789.465	2833.15
789.716	2797.15
789.967	2764.15
790.217	2726.15
790.468	2708.15
790.719	2664.15
790.969	2700.15
791.22	2758.15
791.471	2840.15
791.721	2849.15
791.972	2744.15
792.223	2783.15
792.473	2683.15
792.724	2659.15
792.975	2635.15
793.225	2726.15
793.476	2704.15
793.726	2634.15
793.977	2743.15
794.228	2827.15
794.478	2691.15
794.729	2561.15
794.979	2686.15
795.23	2730.15
795.481	2676.15
795.731	2596.15
795.982	2657.15
796.232	2600.15
796.483	2566.15
796.733	2536.15
796.984	2596.15
797.234	2646.15
797.485	2651.15
797.735	2493.15
797.986	2522.15
798.236	2646.15
798.487	2570.15
798.737	2545.15
798.988	2629.15
799.238	2700.15
799.489	2573.15
799.739	2493.15
799.99	2593.15
800.24	2661.15
800.491	2675.15
800.741	2497.15
800.991	2437.15
801.242	2545.15
801.492	2524.15
801.743	2451.15
801.993	2660.15
802.244	2888.15
802.494	2567.15
802.744	2490.15
802.995	2477.15
803.245	2483.15
803.495	2451.15
803.746	2382.15
803.996	2476.15
804.246	2447.15
804.497	2476.15
804.747	2375.15
804.997	2445.15
805.248	2454.15
805.498	2373.15
805.748	2414.15
805.999	2307.15
806.249	2380.15
806.499	2361.15
806.75	2237.15
807	2286.15
807.25	2416.15
807.5	2318.15
807.751	2348.15
808.001	2426.15
808.251	2388.15
808.501	2476.15
808.752	2436.15
809.002	2393.15
809.252	2381.15
809.502	2326.15
809.752	2289.15
810.003	2241.15
810.253	2305.15
810.503	2334.15
810.753	2389.15
811.003	2373.15
811.254	2389.15
811.504	2332.15
811.754	2279.15
812.004	2281.15
812.254	2538.15
812.504	2374.15
812.754	2265.15
813.005	2337.15
813.255	2402.15
813.505	2332.15
813.755	2197.15
814.005	2277.15
814.255	2320.15
814.505	2295.15
814.755	2157.15
815.005	2180.15
815.255	2270.15
815.505	2240.15
815.756	2310.15
816.006	2277.15
816.256	2201.15
816.506	2177.15
816.756	2122.15
817.006	2135.15
817.256	2227.15
817.506	2225.15
817.756	2164.15
818.006	2171.15
818.256	2194.15
818.506	2205.15
818.756	2092.15
819.006	2120.15
819.256	2234.15
819.506	2147.15
819.756	2047.15
820.006	2171.15
820.255	2224.15
820.505	2199.15
820.755	2055.15
821.005	2057.15
821.255	2176.15
821.505	2123.15
821.755	2072.15
822.005	2139.15
822.255	2216.15
822.505	2151.15
822.755	2163.15
823.004	2032.15
823.254	2057.15
823.504	2132.15
823.754	2085.15
824.004	2045.15
824.254	2171.15
824.504	2142.15
824.753	2166.15
825.003	2135.15
825.253	2202.15
825.503	2089.15
825.753	2035.15
826.002	2111.15
826.252	2273.15
826.502	2095.15
826.752	1999.15
827.002	2006.15
827.251	2104.15
827.501	2041.15
827.751	1972.15
828.001	2020.15
828.25	2102.15
828.5	1940.15
828.75	1898.15
829	2006.15
829.249	2149.15
829.499	1996.15
829.749	1952.15
829.998	2023.15
830.248	2065.15
830.498	1932.15
830.748	1937.15
830.997	1993.15
831.247	2068.15
831.497	2073.15
831.746	1982.15
831.996	2053.15
832.246	2151.15
832.495	2161.15
832.745	1923.15
832.994	1940.15
833.244	2070.15
833.494	1975.15
833.743	1876.15
833.993	1924.15
834.243	2020.15
834.492	1985.15
834.742	1964.15
834.991	1943.15
835.241	2089.15
835.49	1898.15
835.74	1813.15
835.99	1919.15
836.239	2001.15
836.489	2006.15
836.738	1908.15
836.988	1810.15
837.237	1916.15
837.487	2011.15
837.736	1896.15
837.986	1867.15
838.235	1939.15
838.485	1898.15
838.734	1854.15
838.984	1939.15
839.233	1918.15
839.483	1805.15
839.732	1779.15
839.982	1830.15
840.231	1892.15
840.481	1914.15
840.73	1785.15
840.979	1839.15
841.229	1852.15
841.478	1839.15
841.728	1735.15
841.977	1714.15
842.227	1772.15
842.476	1711.15
842.725	1701.15
842.975	1723.15
843.224	1823.15
843.474	1902.15
843.723	1803.15
843.972	1790.15
844.222	1802.15
844.471	1834.15
844.72	1717.15
844.97	1748.15
845.219	1869.15
845.468	1856.15
845.718	1774.15
845.967	1765.15
846.216	1797.15
846.466	1822.15
846.715	1719.15
846.964	1743.15
847.214	1725.15
847.463	1686.15
847.712	1715.15
847.961	1674.15
848.211	1757.15
848.46	1740.15
848.709	1664.15
848.958	1636.15
849.208	1697.15
849.457	1700.15
849.706	1697.15
849.955	1663.15
850.205	1624.15
850.454	1755.15
850.703	1818.15
850.952	1743.15
851.201	1766.15
851.451	1678.15
851.7	1688.15
851.949	1593.15
852.198	1667.15
852.447	1650.15
852.696	1555.15
852.946	1592.15
853.195	1718.15
853.444	1697.15
853.693	1507.15
853.942	1508.15
854.191	1616.15
854.44	1660.15
854.689	1594.15
854.939	1534.15
855.188	1518.15
855.437	1555.15
855.686	1546.15
855.935	1582.15
856.184	1617.15
856.433	1669.15
856.682	1598.15
856.931	1550.15
857.18	1592.15
857.429	1523.15
857.678	1460.15
857.927	1531.15
858.176	1547.15
858.425	1456.15
858.674	1394.15
858.924	1530.15
859.173	1533.15
859.422	1551.15
859.671	1399.15
859.92	1454.15
860.169	1498.15
860.417	1528.15
860.666	1462.15
860.915	1398.15
861.164	1435.15
861.413	1423.15
861.662	1372.15
861.911	1409.15
862.16	1550.15
862.409	1478.15
862.658	1343.15
862.907	1381.15
863.156	1454.15
863.405	1469.15
863.654	1370.15
863.903	1319.15
864.151	1428.15
864.4	1461.15
864.649	1413.15
864.898	1425.15
865.147	1464.15
865.396	1455.15
865.645	1301.15
865.894	1372.15
866.142	1508.15
866.391	1420.15
866.64	1310.15
866.889	1399.15
867.138	1552.15
867.387	1420.15
867.635	1320.15
867.884	1365.15
868.133	1464.15
868.382	1405.15
868.631	1271.15
868.879	1277.15
869.128	1370.15
869.377	1362.15
869.626	1304.15
869.874	1294.15
870.123	1372.15
870.372	1365.15
870.621	1260.15
870.869	1298.15
871.118	1378.15
871.367	1344.15
871.616	1231.15
871.864	1317.15
872.113	1336.15
872.362	1302.15
872.61	1249.15
872.859	1319.15
873.108	1395.15
873.357	1296.15
873.605	1185.15
873.854	1218.15
874.103	1242.15
874.351	1227.15
874.6	1212.15
874.848	1257.15
875.097	1300.15
875.346	1291.15
875.594	1182.15
875.843	1289.15
876.092	1407.15
876.34	1296.15
876.589	1189.15
876.837	1105.15
877.086	1156.15
877.335	1235.15
877.583	1191.15
877.832	1256.15
878.08	1364.15
878.329	1270.15
878.578	1163.15
878.826	1195.15
879.075	1285.15
879.323	1264.15
879.572	1165.15
879.82	1289.15
880.069	1253.15
880.317	1235.15
880.566	1121.15
880.814	1235.15
881.063	1335.15
881.311	1224.15
881.56	1256.15
881.808	1170.15
882.057	1222.15
882.305	1198.15
882.554	1214.15
882.802	1106.15
883.051	1150.15
883.299	1156.15
883.548	1116.15
883.796	1181.15
884.045	1191.15
884.293	1134.15
884.541	1012.15
884.79	996.15
885.038	1095.15
885.287	1112.15
885.535	1151.15
885.783	1164.15
886.032	1084.15
886.28	1052.15
886.529	1016.15
886.777	1063.15
887.025	1203.15
887.274	1075.15
887.522	1007.15
887.77	1035.15
888.019	1071.15
888.267	1046.15
888.516	968.15
888.764	1027.15
889.012	1117.15
889.261	1083.15
889.509	989.15
889.757	985.15
890.005	1033.15
890.254	967.15
890.502	1011.15
890.75	1217.15
890.999	1198.15
891.247	1102.15
891.495	1056.15
891.743	1041.15
891.992	1169.15
892.24	1064.15
892.488	943.15
892.737	991.15
892.985	1054.15
893.233	1044.15
893.481	1001.15
893.729	982.15
893.978	1107.15
894.226	1126.15
894.474	974.15
894.722	956.15
894.97	996.15
895.219	983.15
895.467	977.15
895.715	1016.15
895.963	989.15
896.211	940.15
896.46	848.15
896.708	966.15
896.956	1066.15
897.204	1125.15
897.452	1004.15
897.7	927.15
897.948	1019.15
898.197	982.15
898.445	913.15
898.693	924.15
898.941	987.15
899.189	957.15
899.437	911.15
899.685	1003.15
899.933	947.15
900.181	935.15
900.43	862.15
900.678	878.15
900.926	963.15
901.174	922.15
901.422	868.15
901.67	889.15
901.918	951.15
902.166	913.15
902.414	776.15
902.662	824.15
902.91	922.15
903.158	911.15
903.406	860.15
903.654	857.15
903.902	901.15
904.15	879.15
904.398	774.15
904.646	873.15
904.894	970.15
905.142	955.15
905.39	898.15
905.638	831.15
905.886	855.15
906.134	860.15
906.382	844.15
906.63	784.15
906.878	850.15
907.126	819.15
907.374	791.15
907.622	800.15
907.869	902.15
908.117	875.15
908.365	810.15
908.613	787.15
908.861	791.15
909.109	737.15
909.357	696.15
909.605	789.15
909.853	852.15
910.1	796.15
910.348	636.15
910.596	671.15
910.844	844.15
911.092	884.15
911.34	773.15
911.588	787.15
911.835	845.15
912.083	823.15
912.331	795.15
912.579	815.15
912.827	997.15
913.075	850.15
913.322	685.15
913.57	702.15
913.818	853.15
914.066	783.15
914.313	694.15
914.561	778.15
914.809	789.15
915.057	726.15
915.305	711.15
915.552	703.15
915.8	817.15
916.048	726.15
916.296	652.15
916.543	771.15
916.791	833.15
917.039	773.15
917.286	649.15
917.534	661.15
917.782	812.15
918.03	724.15
918.277	593.15
918.525	604.15
918.773	715.15
919.02	685.15
919.268	638.15
919.516	686.15
919.763	679.15
920.011	686.15
920.259	582.15
920.506	680.15
920.754	782.15
921.002	753.15
921.249	676.15
921.497	646.15
921.745	692.15
921.992	715.15
922.24	583.15
922.487	717.15
922.735	876.15
922.983	787.15
923.23	675.15
923.478	620.15
923.725	687.15
923.973	668.15
924.221	656.15
924.468	715.15
924.716	711.15
924.963	686.15
925.211	623.15
925.458	686.15
925.706	792.15
925.953	805.15
926.201	622.15
926.448	628.15
926.696	729.15
926.944	682.15
927.191	613.15
927.439	612.15
927.686	624.15
927.934	641.15
928.181	545.15
928.429	538.15
928.676	584.15
928.923	523.15
929.171	486.15
929.418	643.15
929.666	688.15
929.913	675.15
930.161	489.15
930.408	545.15
930.656	613.15
930.903	629.15
931.151	509.15
931.398	534.15
931.645	632.15
931.893	560.15
932.14	503.15
932.388	540.15
932.635	693.15
932.882	733.15
933.13	603.15
933.377	516.15
933.625	603.15
933.872	539.15
934.119	446.15
934.367	485.15
934.614	513.15
934.861	501.15
935.109	522.15
935.356	542.15
935.603	583.15
935.851	538.15
936.098	481.15
936.345	573.15
936.593	600.15
936.84	541.15
937.087	419.15
937.335	485.15
937.582	555.15
937.829	560.15
938.077	529.15
938.324	503.15
938.571	556.15
938.818	501.15
939.066	459.15
939.313	448.15
939.56	587.15
939.807	572.15
940.055	416.15
940.302	454.15
940.549	618.15
940.796	537.15
941.044	504.15
941.291	523.15
941.538	646.15
941.785	536.15
942.033	461.15
942.28	525.15
942.527	548.15
942.774	537.15
943.021	391.15
943.269	414.15
943.516	523.15
943.763	522.15
944.01	469.15
944.257	554.15
944.504	593.15
944.752	548.15
944.999	495.15
945.246	437.15
945.493	516.15
945.74	506.15
945.987	427.15
946.234	491.15
946.482	557.15
946.729	460.15
946.976	418.15
947.223	432.15
947.47	587.15
947.717	547.15
947.964	545.15
948.211	500.15
948.458	568.15
948.705	508.15
948.952	404.15
949.2	447.15
949.447	577.15
949.694	586.15
949.941	428.15
950.188	391.15
950.435	428.15
950.682	483.15
950.929	341.15
951.176	398.15
951.423	537.15
951.67	502.15
951.917	477.15
952.164	482.15
952.411	535.15
952.658	586.15
952.905	419.15
953.152	367.15
953.399	476.15
953.646	472.15
953.893	347.15
954.14	388.15
954.387	419.15
954.634	428.15
954.881	375.15
955.128	430.15
955.375	426.15
955.622	437.15
955.869	416.15
956.115	393.15
956.362	462.15
956.609	428.15
956.856	373.15
957.103	374.15
957.35	471.15
957.597	461.15
957.844	382.15
958.091	390.15
958.338	493.15
958.585	440.15
958.831	249.15
959.078	327.15
959.325	475.15
959.572	359.15
959.819	286.15
960.066	245.15
960.313	384.15
960.559	361.15
960.806	237.15
961.053	273.15
961.3	434.15
961.547	460.15
961.794	262.15
962.04	431.15
962.287	447.15
962.534	301.15
962.781	288.15
963.028	350.15
963.274	454.15
963.521	377.15
963.768	301.15
964.015	332.15
964.262	509.15
964.508	345.15
964.755	235.15
965.002	268.15
965.249	320.15
965.495	278.15
965.742	255.15
965.989	263.15
966.236	395.15
966.482	328.15
966.729	262.15
966.976	227.15
967.222	284.15
967.469	305.15
967.716	229.15
967.963	250.15
968.209	329.15
968.456	297.15
968.703	191.15
968.949	291.15
969.196	454.15
969.443	461.15
969.689	225.15
969.936	195.15
970.183	299.15
970.429	248.15
970.676	207.15
970.923	277.15
971.169	329.15
971.416	267.15
971.663	229.15
971.909	269.15
972.156	321.15
972.402	307.15
972.649	247.15
972.896	280.15
973.142	295.15
973.389	324.15
973.635	216.15
973.882	329.15
974.129	405.15
974.375	286.15
974.622	191.15
974.868	211.15
975.115	289.15
975.361	226.15
975.608	181.15
975.855	332.15
976.101	362.15
976.348	266.15
976.594	210.15
976.841	285.15
977.087	289.15
977.334	306.15
977.58	156.15
977.827	165.15
978.073	312.15
978.32	291.15
978.566	150.15
978.813	221.15
979.059	281.15
979.306	261.15
979.552	167.15
979.799	248.15
980.045	243.15
980.292	226.15
980.538	154.15
980.785	180.15
981.031	215.15
981.278	167.15
981.524	99.15
981.771	265.15
982.017	398.15
982.263	310.15
982.51	161.15
982.756	226.15
983.003	299.15
983.249	235.15
983.495	143.15
983.742	132.15
983.988	220.15
984.235	231.15
984.481	136.15
984.727	136.15
984.974	255.15
985.22	257.15
985.467	172.15
985.713	185.15
985.959	297.15
986.206	262.15
986.452	174.15
986.698	223.15
986.945	246.15
987.191	272.15
987.437	283.15
987.684	236.15
987.93	377.15
988.176	284.15
988.423	106.15
988.669	198.15
988.915	349.15
989.162	185.15
989.408	87.15
989.654	180.15
989.901	199.15
990.147	193.15
990.393	213.15
990.639	245.15
990.886	259.15
991.132	319.15
991.378	264.15
991.625	376.15
991.871	344.15
992.117	253.15
992.363	197.15
992.61	224.15
992.856	328.15
993.102	187.15
993.348	131.15
993.594	156.15
993.841	192.15
994.087	316.15
994.333	187.15
994.579	165.15
994.826	217.15
995.072	224.15
995.318	35.15
995.564	98.15
995.81	241.15
996.057	178.15
996.303	53.15
996.549	87.15
996.795	186.15
997.041	173.15
997.287	119.15
997.534	119.15
997.78	184.15
998.026	197.15
998.272	97.15
998.518	94.15
998.764	241.15
999.01	281.15
999.256	172.15
999.503	104.15
999.749	122.15
999.995	99.15
1000.241	85.15
1000.487	164.15
1000.733	204.15
1000.979	172.15
1001.225	139.15
1001.471	200.15
1001.718	238.15
1001.964	260.15
1002.21	105.15
1002.456	139.15
1002.702	280.15
1002.948	193.15
1003.194	117.15
1003.44	74.15
1003.686	166.15
1003.932	129.15
1004.178	77.15
1004.424	155.15
1004.67	286.15
1004.916	250.15
1005.162	148.15
1005.408	96.15
1005.654	213.15
1005.9	69.15
1006.146	17.15
1006.392	101.15
1006.638	185.15
1006.884	136.15
1007.13	63.15
1007.376	55.15
1007.622	217.15
1007.868	246.15
1008.114	118.15
1008.36	180.15
1008.606	202.15
1008.852	217.15
1009.098	166.15
1009.344	187.15
1009.59	153.15
1009.836	35.15
1010.082	-36.85
1010.328	72.15
1010.574	166.15
1010.82	65.15
1011.065	1.15
1011.311	24.15
1011.557	107.15
1011.803	72.15
1012.049	22.15
1012.295	67.15
1012.541	114.15
1012.787	131.15
1013.033	-11.85
1013.278	-15.85
1013.524	128.15
1013.77	212.15
1014.016	91.15
1014.262	90.15
1014.508	193.15
1014.754	35.15
1015	4.15
1015.245	183.15
1015.491	193.15
1015.737	142.15
1015.983	1.15
1016.229	-19.85
1016.475	99.15
1016.72	220.15
1016.966	251.15
1017.212	143.15
1017.458	212.15
1017.704	132.15
1017.949	-5.85
1018.195	162.15
1018.441	270.15
1018.687	195.15
1018.933	45.15
1019.178	54.15
1019.424	222.15
1019.67	231.15
1019.916	20.15
1020.161	56.15
1020.407	106.15
1020.653	58.15
1020.899	-8.85
1021.144	71.15
1021.39	159.15
1021.636	46.15
1021.882	-36.85
1022.127	72.15
1022.373	219.15
1022.619	164.15
1022.865	50.15
1023.11	41.15
1023.356	168.15
1023.602	96.15
1023.847	40.15
1024.093	87.15
1024.339	52.15
1024.584	31.15
1024.83	15.15
1025.076	19.15
1025.321	152.15
1025.567	118.15
1025.813	-4.85
1026.058	78.15
1026.304	158.15
1026.55	56.15
1026.795	31.15
1027.041	44.15
1027.287	107.15
1027.532	118.15
1027.778	89.15
1028.024	55.15
1028.269	94.15
1028.515	13.15
1028.76	-56.85
1029.006	31.15
1029.252	144.15
1029.497	68.15
1029.743	48.15
1029.989	4.15
1030.234	120.15
1030.48	171.15
1030.725	-6.85
1030.971	21.15
1031.216	174.15
1031.462	79.15
1031.708	-51.85
1031.953	-0.85
1032.199	88.15
1032.444	94.15
1032.69	15.15
1032.935	19.15
1033.181	134.15
1033.426	19.15
1033.672	-132.85
1033.918	-62.85
1034.163	65.15
1034.409	35.15
1034.654	-0.85
1034.9	120.15
1035.145	125.15
1035.391	54.15
1035.636	-49.85
1035.882	17.15
1036.127	10.15
1036.373	-24.85
1036.618	-115.85
1036.864	-15.85
1037.109	119.15
1037.355	30.15
1037.6	-31.85
1037.845	3.15
1038.091	196.15
1038.336	152.15
1038.582	152.15
1038.827	245.15
1039.073	88.15
1039.318	-0.85
1039.564	-107.85
1039.809	-33.85
1040.055	164.15
1040.3	141.15
1040.545	-28.85
1040.791	-32.85
1041.036	25.15
1041.282	71.15
1041.527	105.15
1041.772	-53.85
1042.018	4.15
1042.263	36.15
1042.509	-104.85
1042.754	-53.85
1042.999	60.15
1043.245	26.15
1043.49	-133.85
1043.736	-52.85
1043.981	44.15
1044.226	31.15
1044.472	13.15
1044.717	22.15
1044.962	136.15
1045.208	46.15
1045.453	-178.85
1045.698	-92.85
1045.944	99.15
1046.189	64.15
1046.434	-23.85
1046.68	-9.85
1046.925	165.15
1047.17	4.15
1047.416	-162.85
1047.661	-53.85
1047.906	92.15
1048.152	57.15
1048.397	-30.85
1048.642	-31.85
1048.887	159.15
1049.133	148.15
1049.378	-18.85
1049.623	-42.85
1049.869	67.15
1050.114	-8.85
1050.359	-76.85
1050.604	-2.85
1050.85	159.15
1051.095	27.15
1051.34	-62.85
1051.585	-0.85
1051.831	180.15
1052.076	28.15
1052.321	-167.85
1052.566	-56.85
1052.812	129.15
1053.057	31.15
1053.302	-45.85
1053.547	36.15
1053.792	103.15
1054.038	91.15
1054.283	-127.85
1054.528	-40.85
1054.773	39.15
1055.018	42.15
1055.264	-70.85
1055.509	-110.85
1055.754	12.15
1055.999	-41.85
1056.244	-118.85
1056.49	-33.85
1056.735	52.15
1056.98	-21.85
1057.225	-119.85
1057.47	78.15
1057.715	-3.85
1057.96	-71.85
1058.206	-109.85
1058.451	-8.85
1058.696	113.15
1058.941	49.15
1059.186	-127.85
1059.431	-95.85
1059.676	134.15
1059.922	55.15
1060.167	119.15
1060.412	294.15
1060.657	84.15
1060.902	17.15
1061.147	-157.85
1061.392	-78.85
1061.637	59.15
1061.882	-3.85
1062.127	-139.85
1062.373	-129.85
1062.618	138.15
1062.863	141.15
1063.108	-63.85
1063.353	-119.85
1063.598	-12.85
1063.843	-31.85
1064.088	-105.85
1064.333	-107.85
1064.578	48.15
1064.823	63.15
1065.068	-158.85
1065.313	-92.85
1065.558	57.15
1065.803	65.15
1066.048	-137.85
1066.293	-116.85
1066.538	88.15
1066.783	12.15
1067.028	-166.85
1067.273	-141.85
1067.518	44.15
1067.763	-17.85
1068.008	-184.85
1068.253	-118.85
1068.498	68.15
1068.743	20.15
1068.988	-148.85
1069.233	-126.85
1069.478	81.15
1069.723	119.15
1069.968	-71.85
1070.213	-17.85
1070.458	88.15
1070.703	-16.85
1070.948	-179.85
1071.193	-62.85
1071.438	72.15
1071.683	76.15
1071.928	-43.85
1072.173	-53.85
1072.418	18.15
1072.663	-21.85
1072.908	-147.85
1073.152	-82.85
1073.397	94.15
1073.642	-16.85
1073.887	-68.85
1074.132	52.15
1074.377	43.15
1074.622	-0.85
1074.867	-142.85
1075.112	-67.85
1075.357	136.15
1075.601	-9.85
1075.846	-64.85
1076.091	32.15
1076.336	89.15
1076.581	-47.85
1076.826	-171.85
1077.071	-77.85
1077.315	180.15
1077.56	108.15
1077.805	-112.85
1078.05	-81.85
1078.295	-25.85
1078.54	-44.85
1078.785	-166.85
1079.029	-111.85
1079.274	73.15
1079.519	-53.85
1079.764	-150.85
1080.009	-38.85
1080.253	36.15
1080.498	-63.85
1080.743	-214.85
1080.988	-56.85
1081.233	156.15
1081.478	82.15
1081.722	-118.85
1081.967	-3.85
1082.212	137.15
1082.457	26.15
1082.701	-109.85
1082.946	-82.85
1083.191	40.15
1083.436	-56.85
1083.681	-206.85
1083.925	-98.85
1084.17	-5.85
1084.415	7.15
1084.66	-192.85
1084.904	-72.85
1085.149	-1.85
1085.394	-42.85
1085.639	-199.85
1085.883	-87.85
1086.128	156.15
1086.373	168.15
1086.617	-70.85
1086.862	-143.85
1087.107	-19.85
1087.352	-74.85
1087.596	-142.85
1087.841	-6.85
1088.086	24.15
1088.33	-0.85
1088.575	-227.85
1088.82	-91.85
1089.064	80.15
1089.309	-79.85
1089.554	-198.85
1089.798	-140.85
1090.043	54.15
1090.288	-9.85
1090.533	-188.85
1090.777	-115.85
1091.022	32.15
1091.266	59.15
1091.511	-116.85
1091.756	-43.85
1092	121.15
1092.245	99.15
1092.49	-137.85
1092.734	-103.85
1092.979	83.15
1093.224	-22.85
1093.468	-171.85
1093.713	-131.85
1093.957	8.15
1094.202	-65.85
1094.447	-228.85
1094.691	-99.85
1094.936	44.15
1095.181	7.15
1095.425	-166.85
1095.67	-166.85
1095.914	3.15
1096.159	0.15
1096.403	-166.85
1096.648	-65.85
1096.893	49.15
1097.137	-83.85
1097.382	-220.85
1097.626	-144.85
1097.871	0.15
1098.115	-43.85
1098.36	-211.85
1098.605	-124.85
1098.849	-42.85
1099.094	-111.85
1099.338	-184.85
1099.583	-87.85
1099.827	137.15
1100.072	43.15
1100.316	-173.85
1100.561	-111.85
1100.805	54.15
1101.05	38.15
1101.294	-173.85
1101.539	-190.85
1101.783	-11.85
1102.028	6.15
1102.273	-150.85
1102.517	-74.85
1102.761	63.15
1103.006	-71.85
1103.25	-273.85
1103.495	-166.85
1103.739	40.15
1103.984	102.15
1104.228	-104.85
1104.473	-19.85
1104.717	24.15
1104.962	-3.85
1105.206	-132.85
1105.451	-152.85
1105.695	13.15
1105.94	-7.85
1106.184	-154.85
1106.429	-92.85
1106.673	4.15
1106.917	52.15
1107.162	-163.85
1107.406	-8.85
1107.651	141.15
1107.895	-88.85
1108.14	-196.85
1108.384	-96.85
1108.628	117.15
1108.873	102.15
1109.117	-132.85
1109.362	-100.85
1109.606	-22.85
1109.85	-23.85
1110.095	-167.85
1110.339	-96.85
1110.584	91.15
1110.828	28.15
1111.072	-107.85
1111.317	-142.85
1111.561	-23.85
1111.806	-39.85
1112.05	-172.85
1112.294	-83.85
1112.539	25.15
1112.783	-10.85
1113.027	-121.85
1113.272	-106.85
1113.516	-25.85
1113.76	-47.85
1114.005	-140.85
1114.249	-72.85
1114.493	75.15
1114.738	100.15
1114.982	-39.85
1115.226	-86.85
1115.471	-9.85
1115.715	-22.85
1115.959	-186.85
1116.204	-177.85
1116.448	-7.85
1116.692	-84.85
1116.937	-172.85
1117.181	-16.85
1117.425	-27.85
1117.67	-85.85
1117.914	-149.85
1118.158	-103.85
1118.402	142.15
1118.647	69.15
1118.891	-106.85
1119.135	-39.85
1119.38	120.15
1119.624	31.15
1119.868	-151.85
1120.112	-143.85
1120.357	-45.85
1120.601	-123.85
1120.845	-221.85
1121.089	-166.85
1121.334	12.15
