Data from HR4C21111__27__09-58-57-251.txt Node

Date: Mon Feb 22 09:58:57 IST 2021
User: Kapil
Spectrometer: HR4C2111
Trigger mode: 4
Integration Time (sec): 2.300000E0
Scans to average: 1
Electric dark correction enabled: true
Nonlinearity correction enabled: false
Boxcar width: 0
XAxis mode: Wavelengths
Number of Pixels in Spectrum: 3648
>>>>>Begin Spectral Data<<<<<
189.472	-459.77
189.745	-459.77
190.017	-459.77
190.289	-469.77
190.561	-297.77
190.834	-18.77
191.106	-110.77
191.378	11.23
191.65	-2.77
191.923	-149.77
192.195	-95.77
192.467	147.23
192.739	114.23
193.011	-29.77
193.284	80.23
193.556	176.23
193.828	-16.77
194.1	-104.77
194.372	-119.77
194.644	47.23
194.916	50.23
195.188	-162.77
195.46	-75.77
195.732	61.23
196.004	-14.77
196.276	-99.77
196.548	-60.77
196.82	75.23
197.092	61.23
197.364	-135.77
197.636	-91.77
197.908	11.23
198.18	-55.77
198.452	-94.77
198.724	-49.77
198.996	51.23
199.268	77.23
199.54	-12.77
199.811	-105.77
200.083	109.23
200.355	14.23
200.627	-202.77
200.899	-79.77
201.171	46.23
201.442	-72.77
201.714	-182.77
201.986	-89.77
202.258	58.23
202.529	103.23
202.801	5.23
203.073	75.23
203.345	191.23
203.616	-7.77
203.888	-141.77
204.16	-135.77
204.431	71.23
204.703	-16.77
204.974	-148.77
205.246	-5.77
205.518	174.23
205.789	-8.77
206.061	-134.77
206.332	-106.77
206.604	13.23
206.876	87.23
207.147	126.23
207.419	6.23
207.69	129.23
207.962	-38.77
208.233	-179.77
208.505	16.23
208.776	183.23
209.047	90.23
209.319	-123.77
209.59	-89.77
209.862	97.23
210.133	-25.77
210.404	-152.77
210.676	-102.77
210.947	76.23
211.219	51.23
211.49	-120.77
211.761	-34.77
212.033	40.23
212.304	-33.77
212.575	-176.77
212.846	-86.77
213.118	20.23
213.389	-58.77
213.66	-97.77
213.931	-31.77
214.203	45.23
214.474	-32.77
214.745	-125.77
215.016	129.23
215.287	432.23
215.559	61.23
215.83	-115.77
216.101	-70.77
216.372	2.23
216.643	74.23
216.914	3.23
217.185	-85.77
217.456	143.23
217.727	21.23
217.998	-156.77
218.269	-42.77
218.54	30.23
218.811	-16.77
219.082	-112.77
219.353	-76.77
219.624	-1.77
219.895	-22.77
220.166	-126.77
220.437	-119.77
220.708	98.23
220.979	-9.77
221.25	-136.77
221.521	-100.77
221.792	16.23
222.063	77.23
222.334	32.23
222.604	177.23
222.875	168.23
223.146	85.23
223.417	-177.77
223.688	-24.77
223.958	134.23
224.229	-56.77
224.5	-196.77
224.771	-89.77
225.041	65.23
225.312	35.23
225.583	-117.77
225.854	-66.77
226.124	93.23
226.395	-15.77
226.666	-132.77
226.936	-99.77
227.207	66.23
227.478	-55.77
227.748	-105.77
228.019	51.23
228.289	250.23
228.56	-40.77
228.831	-48.77
229.101	47.23
229.372	57.23
229.642	-17.77
229.913	-158.77
230.183	-130.77
230.454	-9.77
230.724	0.23
230.995	-104.77
231.265	-59.77
231.536	70.23
231.806	46.23
232.076	-110.77
232.347	-120.77
232.617	38.23
232.888	24.23
233.158	-65.77
233.428	-120.77
233.699	-10.77
233.969	-38.77
234.239	-148.77
234.51	-92.77
234.78	42.23
235.05	-22.77
235.321	-129.77
235.591	-76.77
235.861	49.23
236.131	-62.77
236.402	-188.77
236.672	-81.77
236.942	42.23
237.212	38.23
237.483	-66.77
237.753	11.23
238.023	155.23
238.293	13.23
238.563	-90.77
238.833	-113.77
239.103	56.23
239.374	-6.77
239.644	-137.77
239.914	-20.77
240.184	147.23
240.454	4.23
240.724	-167.77
240.994	-60.77
241.264	25.23
241.534	60.23
241.804	-10.77
242.074	-84.77
242.344	-35.77
242.614	-70.77
242.884	-193.77
243.154	-131.77
243.424	34.23
243.694	68.23
243.964	-92.77
244.234	-80.77
244.503	123.23
244.773	17.23
245.043	-214.77
245.313	-133.77
245.583	139.23
245.853	83.23
246.123	-185.77
246.392	-128.77
246.662	-7.77
246.932	-30.77
247.202	-183.77
247.471	-62.77
247.741	256.23
248.011	97.23
248.281	-140.77
248.55	-88.77
248.82	75.23
249.09	-8.77
249.359	-81.77
249.629	-66.77
249.899	62.23
250.168	62.23
250.438	-34.77
250.708	-102.77
250.977	79.23
251.247	66.23
251.516	-121.77
251.786	-69.77
252.055	108.23
252.325	11.23
252.595	-102.77
252.864	-61.77
253.134	45.23
253.403	-57.77
253.673	-184.77
253.942	-124.77
254.212	29.23
254.481	6.23
254.75	-150.77
255.02	-93.77
255.289	70.23
255.559	-20.77
255.828	-134.77
256.097	-32.77
256.367	33.23
256.636	-67.77
256.906	-139.77
257.175	-25.77
257.444	235.23
257.714	54.23
257.983	-82.77
258.252	-44.77
258.521	8.23
258.791	33.23
259.06	-107.77
259.329	-55.77
259.598	58.23
259.868	-0.77
260.137	-134.77
260.406	-16.77
260.675	90.23
260.944	20.23
261.214	-144.77
261.483	-41.77
261.752	180.23
262.021	13.23
262.29	-164.77
262.559	-125.77
262.828	22.23
263.097	-49.77
263.366	-203.77
263.635	-81.77
263.905	140.23
264.174	13.23
264.443	-206.77
264.712	-108.77
264.981	35.23
265.25	-29.77
265.519	-136.77
265.788	-149.77
266.057	38.23
266.325	65.23
266.594	-46.77
266.863	-110.77
267.132	24.23
267.401	-6.77
267.67	-197.77
267.939	-152.77
268.208	26.23
268.477	60.23
268.745	-123.77
269.014	-93.77
269.283	136.23
269.552	38.23
269.821	-120.77
270.089	-16.77
270.358	0.23
270.627	-28.77
270.896	-134.77
271.164	-162.77
271.433	26.23
271.702	105.23
271.971	-130.77
272.239	-130.77
272.508	20.23
272.777	-37.77
273.045	-19.77
273.314	-37.77
273.583	82.23
273.851	-26.77
274.12	-160.77
274.388	-129.77
274.657	-0.77
274.926	8.23
275.194	-140.77
275.463	-60.77
275.731	33.23
276	197.23
276.268	399.23
276.537	-81.77
276.805	29.23
277.074	41.23
277.342	-160.77
277.611	-93.77
277.879	110.23
278.148	37.23
278.416	-132.77
278.684	-105.77
278.953	-17.77
279.221	-36.77
279.49	-188.77
279.758	-94.77
280.026	-0.77
280.295	-14.77
280.563	-134.77
280.831	894.23
281.1	2186.23
281.368	201.23
281.636	-97.77
281.904	-116.77
282.173	-7.77
282.441	-58.77
282.709	-101.77
282.977	9.23
283.246	41.23
283.514	-35.77
283.782	-62.77
284.05	48.23
284.318	84.23
284.587	-13.77
284.855	-100.77
285.123	-40.77
285.391	65.23
285.659	37.23
285.927	-158.77
286.195	-85.77
286.463	42.23
286.732	1.23
287	-120.77
287.268	-65.77
287.536	33.23
287.804	-44.77
288.072	-141.77
288.34	-84.77
288.608	63.23
288.876	-32.77
289.144	-105.77
289.412	5.23
289.68	60.23
289.948	-21.77
290.215	-124.77
290.483	-105.77
290.751	105.23
291.019	104.23
291.287	-179.77
291.555	-119.77
291.823	23.23
292.091	-11.77
292.358	-75.77
292.626	-28.77
292.894	81.23
293.162	71.23
293.43	-101.77
293.697	-73.77
293.965	58.23
294.233	-39.77
294.501	-166.77
294.768	-76.77
295.036	69.23
295.304	23.23
295.572	-132.77
295.839	-108.77
296.107	99.23
296.375	-3.77
296.642	-125.77
296.91	-114.77
297.178	57.23
297.445	184.23
297.713	102.23
297.98	-60.77
298.248	-19.77
298.516	-38.77
298.783	-122.77
299.051	-113.77
299.318	18.23
299.586	-20.77
299.853	-99.77
300.121	-97.77
300.388	51.23
300.656	-14.77
300.923	-159.77
301.191	-50.77
301.458	56.23
301.726	-16.77
301.993	-150.77
302.26	-92.77
302.528	36.23
302.795	-6.77
303.063	-69.77
303.33	-62.77
303.597	23.23
303.865	16.23
304.132	-130.77
304.399	-127.77
304.667	-32.77
304.934	10.23
305.201	-102.77
305.469	-6.77
305.736	63.23
306.003	38.23
306.27	-59.77
306.538	-93.77
306.805	4.23
307.072	-25.77
307.339	-86.77
307.606	-40.77
307.874	164.23
308.141	67.23
308.408	-138.77
308.675	-114.77
308.942	-31.77
309.209	-68.77
309.477	-127.77
309.744	-105.77
310.011	28.23
310.278	36.23
310.545	-24.77
310.812	-44.77
311.079	143.23
311.346	210.23
311.613	67.23
311.88	-22.77
312.147	-62.77
312.414	-36.77
312.681	-112.77
312.948	-30.77
313.215	115.23
313.482	102.23
313.749	-83.77
314.016	-193.77
314.283	-54.77
314.55	47.23
314.817	-114.77
315.083	-135.77
315.35	-85.77
315.617	-139.77
315.884	-133.77
316.151	73.23
316.418	162.23
316.684	-25.77
316.951	-186.77
317.218	-92.77
317.485	13.23
317.752	-61.77
318.018	-132.77
318.285	-5.77
318.552	20.23
318.819	-69.77
319.085	-133.77
319.352	-51.77
319.619	25.23
319.885	-21.77
320.152	-184.77
320.419	-87.77
320.685	33.23
320.952	-21.77
321.219	-60.77
321.485	73.23
321.752	5.23
322.019	-58.77
322.285	43.23
322.552	-4.77
322.818	134.23
323.085	-21.77
323.351	-133.77
323.618	-9.77
323.884	32.23
324.151	-85.77
324.417	-55.77
324.684	-97.77
324.95	-65.77
325.217	-145.77
325.483	-175.77
325.75	-30.77
326.016	7.23
326.283	-20.77
326.549	-181.77
326.815	-82.77
327.082	95.23
327.348	20.23
327.615	-109.77
327.881	-28.77
328.147	143.23
328.414	135.23
328.68	13.23
328.946	-33.77
329.212	31.23
329.479	-14.77
329.745	-131.77
330.011	-110.77
330.278	5.23
330.544	-30.77
330.81	-24.77
331.076	-19.77
331.342	-36.77
331.609	-36.77
331.875	-89.77
332.141	-86.77
332.407	32.23
332.673	-6.77
332.94	-11.77
333.206	-46.77
333.472	46.23
333.738	83.23
334.004	-108.77
334.27	-10.77
334.536	16.23
334.802	-24.77
335.068	-81.77
335.334	2.23
335.6	17.23
335.866	-9.77
336.132	-168.77
336.398	-80.77
336.664	-5.77
336.93	-43.77
337.196	-74.77
337.462	-6.77
337.728	15.23
337.994	-42.77
338.26	-77.77
338.526	-28.77
338.792	-49.77
339.058	-38.77
339.324	-127.77
339.59	-0.77
339.856	67.23
340.121	-49.77
340.387	-118.77
340.653	86.23
340.919	151.23
341.185	73.23
341.45	-61.77
341.716	39.23
341.982	114.23
342.248	-29.77
342.514	-77.77
342.779	0.23
343.045	29.23
343.311	0.23
343.576	-71.77
343.842	-36.77
344.108	146.23
344.374	35.23
344.639	-89.77
344.905	-77.77
345.171	65.23
345.436	-41.77
345.702	-64.77
345.967	76.23
346.233	109.23
346.499	51.23
346.764	-146.77
347.03	-34.77
347.295	0.23
347.561	26.23
347.826	-19.77
348.092	-98.77
348.357	-6.77
348.623	-5.77
348.888	-98.77
349.154	-53.77
349.419	83.23
349.685	39.23
349.95	-53.77
350.216	-12.77
350.481	83.23
350.747	-14.77
351.012	-139.77
351.277	-62.77
351.543	75.23
351.808	26.23
352.074	-132.77
352.339	-66.77
352.604	95.23
352.87	61.23
353.135	-68.77
353.4	-10.77
353.666	44.23
353.931	27.23
354.196	-86.77
354.461	-71.77
354.727	98.23
354.992	84.23
355.257	-66.77
355.522	27.23
355.788	50.23
356.053	124.23
356.318	-20.77
356.583	-36.77
356.848	192.23
357.113	311.23
357.379	17.23
357.644	-14.77
357.909	185.23
358.174	213.23
358.439	-33.77
358.704	39.23
358.969	162.23
359.234	194.23
359.499	25.23
359.765	72.23
360.03	194.23
360.295	188.23
360.56	25.23
360.825	80.23
361.09	303.23
361.355	142.23
361.62	100.23
361.885	125.23
362.15	106.23
362.415	125.23
362.679	72.23
362.944	234.23
363.209	248.23
363.474	271.23
363.739	218.23
364.004	145.23
364.269	215.23
364.534	263.23
364.799	214.23
365.063	204.23
365.328	325.23
365.593	311.23
365.858	190.23
366.123	218.23
366.387	347.23
366.652	282.23
366.917	167.23
367.182	246.23
367.447	391.23
367.711	358.23
367.976	308.23
368.241	380.23
368.505	443.23
368.77	347.23
369.035	338.23
369.299	397.23
369.564	429.23
369.829	372.23
370.093	341.23
370.358	336.23
370.623	445.23
370.887	476.23
371.152	344.23
371.416	410.23
371.681	470.23
371.946	399.23
372.21	377.23
372.475	509.23
372.739	546.23
373.004	494.23
373.268	469.23
373.533	543.23
373.797	617.23
374.062	629.23
374.326	483.23
374.591	557.23
374.855	663.23
375.12	598.23
375.384	461.23
375.648	553.23
375.913	700.23
376.177	747.23
376.442	626.23
376.706	667.23
376.97	789.23
377.235	740.23
377.499	719.23
377.763	753.23
378.028	769.23
378.292	842.23
378.556	754.23
378.821	695.23
379.085	807.23
379.349	762.23
379.614	699.23
379.878	830.23
380.142	1031.23
380.406	947.23
380.671	939.23
380.935	1118.23
381.199	1233.23
381.463	1131.23
381.727	1098.23
381.991	1062.23
382.256	1139.23
382.52	1095.23
382.784	1119.23
383.048	1273.23
383.312	1215.23
383.576	1219.23
383.84	1143.23
384.104	1197.23
384.369	1315.23
384.633	1214.23
384.897	1143.23
385.161	1308.23
385.425	1441.23
385.689	1364.23
385.953	1343.23
386.217	1359.23
386.481	1467.23
386.745	1528.23
387.009	1474.23
387.273	1446.23
387.537	1518.23
387.801	1593.23
388.064	1535.23
388.328	1647.23
388.592	1725.23
388.856	1662.23
389.12	1607.23
389.384	1672.23
389.648	1717.23
389.912	1801.23
390.176	1830.23
390.439	1979.23
390.703	1829.23
390.967	1816.23
391.231	1759.23
391.495	1836.23
391.758	1905.23
392.022	1973.23
392.286	1893.23
392.55	1915.23
392.813	2013.23
393.077	2065.23
393.341	2032.23
393.605	2142.23
393.868	2100.23
394.132	2103.23
394.396	2062.23
394.659	2227.23
394.923	2191.23
395.187	2126.23
395.45	2182.23
395.714	2294.23
395.978	2311.23
396.241	2311.23
396.505	2282.23
396.768	2399.23
397.032	2475.23
397.295	2469.23
397.559	2410.23
397.823	2396.23
398.086	2569.23
398.35	2515.23
398.613	2435.23
398.877	2517.23
399.14	2688.23
399.404	2778.23
399.667	2677.23
399.931	2627.23
400.194	2741.23
400.457	2729.23
400.721	2789.23
400.984	2883.23
401.248	2831.23
401.511	2777.23
401.775	2683.23
402.038	2780.23
402.301	3021.23
402.565	3020.23
402.828	2827.23
403.091	2906.23
403.355	3096.23
403.618	3029.23
403.881	3029.23
404.145	3080.23
404.408	3126.23
404.671	3066.23
404.934	3131.23
405.198	3212.23
405.461	3230.23
405.724	3286.23
405.987	3304.23
406.251	3365.23
406.514	3459.23
406.777	3317.23
407.04	3233.23
407.303	3254.23
407.567	3423.23
407.83	3517.23
408.093	3326.23
408.356	3479.23
408.619	3575.23
408.882	3633.23
409.145	3558.23
409.408	3513.23
409.672	3608.23
409.935	3550.23
410.198	3469.23
410.461	3567.23
410.724	3798.23
410.987	3740.23
411.25	3567.23
411.513	3719.23
411.776	3756.23
412.039	3651.23
412.302	3629.23
412.565	3678.23
412.828	3738.23
413.091	3770.23
413.354	3658.23
413.617	3647.23
413.879	3674.23
414.142	3692.23
414.405	3543.23
414.668	3573.23
414.931	3710.23
415.194	3710.23
415.457	3571.23
415.72	3647.23
415.983	3674.23
416.245	3769.23
416.508	3628.23
416.771	3550.23
417.034	3717.23
417.297	3684.23
417.559	3627.23
417.822	3613.23
418.085	3739.23
418.348	3725.23
418.61	3571.23
418.873	3593.23
419.136	3672.23
419.399	3653.23
419.661	3669.23
419.924	3594.23
420.187	3738.23
420.449	3755.23
420.712	3676.23
420.975	3661.23
421.237	3757.23
421.5	3819.23
421.762	3884.23
422.025	3856.23
422.288	3921.23
422.55	3763.23
422.813	3707.23
423.075	3829.23
423.338	3937.23
423.601	3978.23
423.863	3902.23
424.126	3955.23
424.388	4061.23
424.651	4029.23
424.913	4028.23
425.176	4017.23
425.438	4035.23
425.701	4031.23
425.963	3951.23
426.225	3959.23
426.488	4047.23
426.75	4079.23
427.013	4050.23
427.275	4065.23
427.538	4119.23
427.8	4109.23
428.062	4039.23
428.325	4097.23
428.587	4212.23
428.849	4222.23
429.112	4221.23
429.374	4168.23
429.636	4182.23
429.899	4282.23
430.161	4197.23
430.423	4288.23
430.686	4421.23
430.948	4378.23
431.21	4185.23
431.472	4117.23
431.735	4302.23
431.997	4360.23
432.259	4314.23
432.521	4179.23
432.783	4360.23
433.046	4321.23
433.308	4183.23
433.57	4293.23
433.832	4550.23
434.094	4332.23
434.356	4180.23
434.618	4349.23
434.881	4433.23
435.143	4509.23
435.405	4465.23
435.667	4450.23
435.929	4472.23
436.191	4445.23
436.453	4339.23
436.715	4472.23
436.977	4628.23
437.239	4703.23
437.501	4597.23
437.763	4583.23
438.025	4677.23
438.287	4600.23
438.549	4598.23
438.811	4536.23
439.073	4561.23
439.335	4646.23
439.597	4576.23
439.859	4504.23
440.121	4602.23
440.383	4552.23
440.645	4588.23
440.907	4618.23
441.168	4628.23
441.43	4615.23
441.692	4630.23
441.954	4673.23
442.216	4690.23
442.478	4646.23
442.74	4537.23
443.001	4710.23
443.263	4831.23
443.525	4676.23
443.787	4586.23
444.048	4562.23
444.31	4556.23
444.572	4682.23
444.834	4675.23
445.095	4628.23
445.357	4780.23
445.619	4600.23
445.881	4517.23
446.142	4577.23
446.404	4567.23
446.666	4590.23
446.927	4608.23
447.189	4744.23
447.451	4766.23
447.712	4636.23
447.974	4484.23
448.235	4493.23
448.497	4587.23
448.759	4571.23
449.02	4549.23
449.282	4498.23
449.543	4680.23
449.805	4724.23
450.066	4449.23
450.328	4582.23
450.59	4780.23
450.851	4581.23
451.113	4481.23
451.374	4456.23
451.636	4721.23
451.897	4754.23
452.158	4662.23
452.42	4674.23
452.681	4747.23
452.943	4572.23
453.204	4574.23
453.466	4590.23
453.727	4575.23
453.988	4626.23
454.25	4540.23
454.511	4593.23
454.773	4655.23
455.034	4781.23
455.295	4515.23
455.557	4655.23
455.818	4676.23
456.079	4630.23
456.341	4730.23
456.602	4801.23
456.863	4851.23
457.124	4701.23
457.386	4603.23
457.647	4557.23
457.908	4670.23
458.169	4805.23
458.431	4647.23
458.692	4738.23
458.953	4806.23
459.214	4774.23
459.476	4884.23
459.737	5023.23
459.998	5054.23
460.259	4901.23
460.52	4912.23
460.781	5033.23
461.043	5161.23
461.304	5063.23
461.565	4865.23
461.826	4909.23
462.087	5106.23
462.348	5256.23
462.609	5224.23
462.87	5172.23
463.131	5090.23
463.392	5293.23
463.653	5302.23
463.914	5348.23
464.175	5337.23
464.436	5341.23
464.697	5372.23
464.958	5229.23
465.219	5314.23
465.48	5457.23
465.741	5465.23
466.002	5328.23
466.263	5529.23
466.524	5565.23
466.785	5455.23
467.046	5531.23
467.307	5704.23
467.568	5772.23
467.829	5718.23
468.089	5679.23
468.35	5736.23
468.611	5685.23
468.872	5614.23
469.133	5833.23
469.394	6062.23
469.655	6196.23
469.915	6024.23
470.176	5874.23
470.437	5931.23
470.698	6149.23
470.958	6186.23
471.219	6177.23
471.48	6344.23
471.741	6445.23
472.001	6429.23
472.262	6388.23
472.523	6619.23
472.784	6760.23
473.044	6645.23
473.305	6675.23
473.566	6735.23
473.826	6847.23
474.087	6755.23
474.348	6849.23
474.608	7093.23
474.869	7058.23
475.129	6964.23
475.39	7030.23
475.651	7221.23
475.911	7423.23
476.172	7237.23
476.432	7362.23
476.693	7599.23
476.953	7462.23
477.214	7536.23
477.475	7596.23
477.735	7562.23
477.996	7739.23
478.256	7631.23
478.517	7717.23
478.777	7863.23
479.038	8050.23
479.298	8177.23
479.558	8156.23
479.819	8266.23
480.079	8292.23
480.34	8340.23
480.6	8318.23
480.861	8440.23
481.121	8491.23
481.381	8483.23
481.642	8583.23
481.902	8655.23
482.162	8653.23
482.423	8634.23
482.683	8769.23
482.943	8953.23
483.204	8913.23
483.464	8826.23
483.724	8875.23
483.985	9001.23
484.245	9109.23
484.505	9067.23
484.765	9149.23
485.026	9236.23
485.286	9357.23
485.546	9330.23
485.806	9349.23
486.067	9402.23
486.327	9396.23
486.587	9404.23
486.847	9431.23
487.107	9556.23
487.368	9651.23
487.628	9611.23
487.888	9718.23
488.148	9788.23
488.408	9681.23
488.668	9735.23
488.928	9769.23
489.188	9782.23
489.449	9891.23
489.709	9801.23
489.969	9866.23
490.229	10013.23
490.489	9975.23
490.749	9860.23
491.009	9807.23
491.269	9932.23
491.529	9958.23
491.789	9949.23
492.049	10017.23
492.309	10099.23
492.569	10016.23
492.829	10016.23
493.089	10006.23
493.349	10185.23
493.609	10146.23
493.869	10046.23
494.129	10139.23
494.389	10186.23
494.648	10122.23
494.908	10103.23
495.168	10175.23
495.428	10276.23
495.688	10168.23
495.948	10076.23
496.208	10153.23
496.467	10198.23
496.727	10109.23
496.987	10168.23
497.247	10269.23
497.507	10318.23
497.767	10322.23
498.026	10175.23
498.286	10299.23
498.546	10423.23
498.806	10328.23
499.065	10372.23
499.325	10274.23
499.585	10333.23
499.845	10355.23
500.104	10353.23
500.364	10476.23
500.624	10442.23
500.883	10354.23
501.143	10360.23
501.403	10386.23
501.662	10452.23
501.922	10471.23
502.182	10239.23
502.441	10243.23
502.701	10339.23
502.96	10463.23
503.22	10419.23
503.48	10349.23
503.739	10377.23
503.999	10332.23
504.258	10294.23
504.518	10343.23
504.777	10402.23
505.037	10397.23
505.296	10304.23
505.556	10308.23
505.815	10501.23
506.075	10605.23
506.334	10505.23
506.594	10310.23
506.853	10358.23
507.113	10366.23
507.372	10210.23
507.632	10347.23
507.891	10393.23
508.151	10424.23
508.41	10296.23
508.669	10351.23
508.929	10465.23
509.188	10387.23
509.447	10359.23
509.707	10289.23
509.966	10344.23
510.226	10379.23
510.485	10397.23
510.744	10430.23
511.004	10458.23
511.263	10339.23
511.522	10304.23
511.781	10332.23
512.041	10503.23
512.3	10454.23
512.559	10503.23
512.818	10507.23
513.078	10450.23
513.337	10421.23
513.596	10328.23
513.855	10382.23
514.115	10507.23
514.374	10489.23
514.633	10421.23
514.892	10360.23
515.151	10476.23
515.41	10522.23
515.67	10471.23
515.929	10450.23
516.188	10580.23
516.447	10479.23
516.706	10407.23
516.965	10441.23
517.224	10519.23
517.483	10486.23
517.743	10453.23
518.002	10552.23
518.261	10586.23
518.52	10571.23
518.779	10521.23
519.038	10469.23
519.297	10466.23
519.556	10467.23
519.815	10392.23
520.074	10444.23
520.333	10558.23
520.592	10549.23
520.851	10433.23
521.11	10559.23
521.369	10679.23
521.628	10532.23
521.887	10411.23
522.145	10513.23
522.404	10573.23
522.663	10567.23
522.922	10420.23
523.181	10418.23
523.44	10520.23
523.699	10574.23
523.958	10404.23
524.217	10426.23
524.475	10511.23
524.734	10473.23
524.993	10433.23
525.252	10504.23
525.511	10540.23
525.769	10487.23
526.028	10423.23
526.287	10454.23
526.546	10510.23
526.805	10523.23
527.063	10366.23
527.322	10374.23
527.581	10483.23
527.839	10518.23
528.098	10488.23
528.357	10439.23
528.616	10484.23
528.874	10501.23
529.133	10434.23
529.392	10458.23
529.65	10433.23
529.909	10434.23
530.168	10309.23
530.426	10324.23
530.685	10455.23
530.943	10435.23
531.202	10350.23
531.461	10429.23
531.719	10491.23
531.978	10448.23
532.236	10329.23
532.495	10431.23
532.753	10501.23
533.012	10459.23
533.271	10414.23
533.529	10344.23
533.788	10410.23
534.046	10383.23
534.305	10326.23
534.563	10536.23
534.822	10617.23
535.08	10513.23
535.338	10451.23
535.597	10469.23
535.855	10516.23
536.114	10490.23
536.372	10415.23
536.631	10540.23
536.889	10546.23
537.147	10493.23
537.406	10284.23
537.664	10497.23
537.923	10607.23
538.181	10581.23
538.439	10431.23
538.698	10570.23
538.956	10566.23
539.214	10562.23
539.473	10514.23
539.731	10610.23
539.989	10720.23
540.248	10594.23
540.506	10586.23
540.764	10626.23
541.022	10671.23
541.281	10775.23
541.539	10693.23
541.797	10669.23
542.055	10843.23
542.314	10973.23
542.572	10898.23
542.83	10771.23
543.088	10856.23
543.346	10806.23
543.604	10794.23
543.863	10905.23
544.121	11033.23
544.379	11004.23
544.637	10896.23
544.895	11031.23
545.153	11116.23
545.411	11018.23
545.67	10918.23
545.928	11063.23
546.186	11210.23
546.444	11196.23
546.702	11155.23
546.96	11224.23
547.218	11293.23
547.476	11229.23
547.734	11195.23
547.992	11247.23
548.25	11470.23
548.508	11422.23
548.766	11404.23
549.024	11431.23
549.282	11496.23
549.54	11615.23
549.798	11622.23
550.056	11593.23
550.314	11733.23
550.572	11723.23
550.83	11619.23
551.088	11705.23
551.346	11847.23
551.603	11924.23
551.861	11835.23
552.119	11930.23
552.377	12019.23
552.635	11988.23
552.893	11934.23
553.151	11980.23
553.409	12111.23
553.666	12128.23
553.924	12128.23
554.182	12052.23
554.44	12223.23
554.698	12330.23
554.955	12218.23
555.213	12258.23
555.471	12451.23
555.729	12441.23
555.986	12239.23
556.244	12311.23
556.502	12530.23
556.76	12486.23
557.017	12484.23
557.275	12501.23
557.533	12685.23
557.79	12665.23
558.048	12518.23
558.306	12615.23
558.563	12664.23
558.821	12602.23
559.079	12629.23
559.336	12635.23
559.594	12679.23
559.852	12632.23
560.109	12609.23
560.367	12758.23
560.624	12835.23
560.882	12777.23
561.14	12754.23
561.397	12918.23
561.655	12792.23
561.912	12777.23
562.17	12733.23
562.427	12802.23
562.685	12936.23
562.942	12941.23
563.2	12836.23
563.457	12863.23
563.715	12947.23
563.972	13000.23
564.23	12845.23
564.487	12780.23
564.745	12838.23
565.002	12925.23
565.26	12825.23
565.517	12813.23
565.774	12877.23
566.032	12966.23
566.289	12866.23
566.547	12818.23
566.804	12922.23
567.061	12875.23
567.319	12791.23
567.576	12850.23
567.833	12920.23
568.091	12985.23
568.348	12857.23
568.605	12872.23
568.863	12875.23
569.12	12814.23
569.377	12767.23
569.635	12751.23
569.892	12739.23
570.149	12723.23
570.406	12642.23
570.664	12613.23
570.921	12744.23
571.178	12650.23
571.435	12600.23
571.693	12587.23
571.95	12691.23
572.207	12570.23
572.464	12438.23
572.721	12491.23
572.979	12547.23
573.236	12546.23
573.493	12423.23
573.75	12391.23
574.007	12476.23
574.264	12389.23
574.521	12245.23
574.779	12240.23
575.036	12312.23
575.293	12264.23
575.55	12115.23
575.807	12066.23
576.064	12086.23
576.321	12057.23
576.578	11900.23
576.835	11877.23
577.092	12068.23
577.349	11842.23
577.606	11618.23
577.863	11664.23
578.12	11791.23
578.377	11709.23
578.634	11474.23
578.891	11506.23
579.148	11551.23
579.405	11477.23
579.662	11315.23
579.919	11413.23
580.176	11404.23
580.433	11333.23
580.69	11156.23
580.947	11161.23
581.204	11186.23
581.461	11022.23
581.717	10867.23
581.974	10978.23
582.231	10968.23
582.488	10800.23
582.745	10535.23
583.002	10565.23
583.259	10685.23
583.515	10532.23
583.772	10340.23
584.029	10433.23
584.286	10529.23
584.543	10257.23
584.799	10241.23
585.056	10290.23
585.313	10310.23
585.57	10297.23
585.826	10012.23
586.083	10047.23
586.34	10179.23
586.597	9923.23
586.853	9763.23
587.11	9804.23
587.367	9878.23
587.623	9822.23
587.88	9699.23
588.137	9559.23
588.393	9636.23
588.65	9499.23
588.907	9359.23
589.163	9435.23
589.42	9466.23
589.677	9397.23
589.933	9266.23
590.19	9307.23
590.446	9394.23
590.703	9347.23
590.96	9095.23
591.216	9054.23
591.473	9135.23
591.729	9110.23
591.986	9060.23
592.242	9113.23
592.499	9258.23
592.755	9039.23
593.012	8906.23
593.268	8999.23
593.525	8905.23
593.781	8943.23
594.038	8762.23
594.294	8811.23
594.551	8872.23
594.807	8802.23
595.064	8751.23
595.32	8750.23
595.576	8808.23
595.833	8785.23
596.089	8623.23
596.346	8752.23
596.602	8785.23
596.858	8808.23
597.115	8644.23
597.371	8668.23
597.628	8661.23
597.884	8555.23
598.14	8505.23
598.397	8670.23
598.653	8741.23
598.909	8648.23
599.166	8487.23
599.422	8464.23
599.678	8542.23
599.934	8553.23
600.191	8408.23
600.447	8470.23
600.703	8452.23
600.959	8393.23
601.216	8220.23
601.472	8251.23
601.728	8403.23
601.984	8346.23
602.241	8263.23
602.497	8364.23
602.753	8505.23
603.009	8377.23
603.265	8277.23
603.521	8399.23
603.778	8495.23
604.034	8328.23
604.29	8264.23
604.546	8356.23
604.802	8442.23
605.058	8348.23
605.314	8272.23
605.571	8278.23
605.827	8276.23
606.083	8245.23
606.339	8207.23
606.595	8320.23
606.851	8435.23
607.107	8421.23
607.363	8207.23
607.619	8185.23
607.875	8394.23
608.131	8349.23
608.387	8132.23
608.643	8178.23
608.899	8255.23
609.155	8276.23
609.411	8191.23
609.667	8185.23
609.923	8191.23
610.179	8159.23
610.435	8010.23
610.691	8063.23
610.947	8246.23
611.203	8187.23
611.459	8041.23
611.714	8092.23
611.97	8192.23
612.226	8114.23
612.482	7911.23
612.738	8089.23
612.994	8259.23
613.25	8011.23
613.505	7893.23
613.761	7970.23
614.017	8021.23
614.273	7988.23
614.529	7911.23
614.785	7881.23
615.04	7968.23
615.296	7914.23
615.552	7870.23
615.808	7868.23
616.063	7902.23
616.319	7891.23
616.575	7745.23
616.831	7799.23
617.086	7971.23
617.342	7958.23
617.598	7836.23
617.854	7901.23
618.109	7929.23
618.365	7730.23
618.621	7624.23
618.876	7688.23
619.132	7852.23
619.388	7756.23
619.643	7469.23
619.899	7595.23
620.155	7705.23
620.41	7706.23
620.666	7539.23
620.921	7625.23
621.177	7732.23
621.433	7669.23
621.688	7545.23
621.944	7512.23
622.199	7526.23
622.455	7518.23
622.71	7351.23
622.966	7392.23
623.221	7397.23
623.477	7405.23
623.732	7364.23
623.988	7231.23
624.243	7367.23
624.499	7349.23
624.754	7189.23
625.01	7233.23
625.265	7271.23
625.521	7310.23
625.776	7167.23
626.032	7175.23
626.287	7247.23
626.543	7182.23
626.798	7139.23
627.053	7148.23
627.309	7162.23
627.564	7057.23
627.82	7036.23
628.075	7125.23
628.33	7034.23
628.586	6899.23
628.841	6767.23
629.096	6935.23
629.352	7016.23
629.607	6874.23
629.862	6787.23
630.118	6884.23
630.373	6830.23
630.628	6887.23
630.884	6715.23
631.139	6739.23
631.394	6822.23
631.649	6742.23
631.905	6622.23
632.16	6706.23
632.415	6865.23
632.67	6693.23
632.926	6517.23
633.181	6510.23
633.436	6625.23
633.691	6555.23
633.946	6409.23
634.202	6406.23
634.457	6514.23
634.712	6467.23
634.967	6353.23
635.222	6283.23
635.477	6378.23
635.733	6376.23
635.988	6262.23
636.243	6255.23
636.498	6378.23
636.753	6340.23
637.008	6180.23
637.263	6280.23
637.518	6296.23
637.773	6191.23
638.028	6122.23
638.283	6097.23
638.539	6236.23
638.794	6190.23
639.049	6060.23
639.304	5992.23
639.559	6019.23
639.814	6086.23
640.069	5957.23
640.324	5905.23
640.579	6040.23
640.834	6022.23
641.089	5890.23
641.344	5945.23
641.598	6107.23
641.853	6028.23
642.108	5829.23
642.363	5778.23
642.618	5921.23
642.873	5800.23
643.128	5699.23
643.383	5721.23
643.638	5782.23
643.893	5840.23
644.148	5795.23
644.402	5685.23
644.657	5712.23
644.912	5625.23
645.167	5650.23
645.422	5673.23
645.677	5645.23
645.931	5670.23
646.186	5645.23
646.441	5549.23
646.696	5511.23
646.951	5543.23
647.205	5507.23
647.46	5464.23
647.715	5481.23
647.97	5619.23
648.224	5729.23
648.479	5546.23
648.734	5625.23
648.989	5578.23
649.243	5462.23
649.498	5422.23
649.753	5414.23
650.007	5495.23
650.262	5375.23
650.517	5371.23
650.771	5423.23
651.026	5353.23
651.281	5262.23
651.535	5365.23
651.79	5353.23
652.045	5327.23
652.299	5270.23
652.554	5239.23
652.809	5292.23
653.063	5443.23
653.318	5337.23
653.572	5261.23
653.827	5323.23
654.081	5188.23
654.336	5087.23
654.591	5162.23
654.845	5257.23
655.1	5190.23
655.354	5134.23
655.609	5208.23
655.863	5301.23
656.118	5248.23
656.372	5114.23
656.627	5090.23
656.881	5194.23
657.136	5147.23
657.39	5043.23
657.645	5176.23
657.899	5299.23
658.153	5153.23
658.408	5058.23
658.662	5117.23
658.917	5142.23
659.171	5030.23
659.426	4935.23
659.68	4999.23
659.934	5128.23
660.189	5116.23
660.443	4993.23
660.697	5141.23
660.952	5205.23
661.206	5026.23
661.46	4885.23
661.715	4974.23
661.969	5097.23
662.223	5037.23
662.478	5023.23
662.732	5117.23
662.986	5110.23
663.241	5106.23
663.495	4975.23
663.749	5002.23
664.003	5164.23
664.258	5043.23
664.512	4997.23
664.766	5042.23
665.02	5123.23
665.275	5116.23
665.529	4956.23
665.783	5002.23
666.037	5073.23
666.291	5075.23
666.546	4965.23
666.8	4975.23
667.054	4974.23
667.308	5040.23
667.562	4910.23
667.816	4991.23
668.071	5113.23
668.325	5005.23
668.579	4992.23
668.833	5079.23
669.087	5197.23
669.341	5071.23
669.595	5000.23
669.849	5090.23
670.103	5114.23
670.357	5097.23
670.612	5040.23
670.866	5042.23
671.12	5157.23
671.374	5111.23
671.628	5074.23
671.882	5038.23
672.136	5162.23
672.39	5151.23
672.644	4938.23
672.898	5106.23
673.152	5311.23
673.406	5247.23
673.66	5159.23
673.914	5192.23
674.168	5280.23
674.422	5219.23
674.675	5080.23
674.929	5154.23
675.183	5278.23
675.437	5247.23
675.691	5166.23
675.945	5230.23
676.199	5324.23
676.453	5261.23
676.707	5119.23
676.961	5154.23
677.214	5263.23
677.468	5298.23
677.722	5301.23
677.976	5283.23
678.23	5360.23
678.484	5380.23
678.737	5249.23
678.991	5242.23
679.245	5279.23
679.499	5272.23
679.753	5255.23
680.006	5330.23
680.26	5468.23
680.514	5509.23
680.768	5359.23
681.021	5415.23
681.275	5454.23
681.529	5433.23
681.783	5344.23
682.036	5389.23
682.29	5375.23
682.544	5388.23
682.797	5323.23
683.051	5360.23
683.305	5443.23
683.559	5529.23
683.812	5547.23
684.066	5514.23
684.32	5562.23
684.573	5539.23
684.827	5545.23
685.08	5553.23
685.334	5688.23
685.588	5597.23
685.841	5476.23
686.095	5629.23
686.348	5651.23
686.602	5629.23
686.856	5578.23
687.109	5550.23
687.363	5614.23
687.616	5605.23
687.87	5511.23
688.123	5579.23
688.377	5682.23
688.63	5739.23
688.884	5707.23
689.137	5716.23
689.391	5754.23
689.644	5627.23
689.898	5509.23
690.151	5552.23
690.405	5691.23
690.658	5639.23
690.912	5579.23
691.165	5610.23
691.419	5724.23
691.672	5713.23
691.926	5651.23
692.179	5664.23
692.432	5728.23
692.686	5700.23
692.939	5608.23
693.193	5661.23
693.446	5786.23
693.699	5781.23
693.953	5786.23
694.206	5791.23
694.459	5807.23
694.713	5820.23
694.966	5680.23
695.219	5702.23
695.473	5861.23
695.726	5775.23
695.979	5711.23
696.233	5781.23
696.486	5832.23
696.739	5763.23
696.992	5655.23
697.246	5780.23
697.499	5897.23
697.752	5718.23
698.006	5637.23
698.259	5794.23
698.512	5836.23
698.765	5724.23
699.018	5659.23
699.272	5791.23
699.525	5795.23
699.778	5707.23
700.031	5677.23
700.284	5694.23
700.538	5801.23
700.791	5749.23
701.044	5690.23
701.297	5748.23
701.55	5721.23
701.803	5706.23
702.056	5647.23
702.31	5647.23
702.563	5782.23
702.816	5694.23
703.069	5522.23
703.322	5654.23
703.575	5773.23
703.828	5768.23
704.081	5713.23
704.334	5706.23
704.587	5752.23
704.84	5670.23
705.093	5640.23
705.346	5724.23
705.599	5715.23
705.853	5714.23
706.106	5810.23
706.359	6033.23
706.612	5699.23
706.865	5761.23
707.118	5591.23
707.37	5656.23
707.623	5804.23
707.876	5738.23
708.129	5605.23
708.382	5723.23
708.635	5781.23
708.888	5631.23
709.141	5460.23
709.394	5648.23
709.647	5755.23
709.9	5577.23
710.153	5496.23
710.406	5639.23
710.658	5685.23
710.911	5653.23
711.164	5506.23
711.417	5470.23
711.67	5490.23
711.923	5559.23
712.176	5484.23
712.428	5483.23
712.681	5476.23
712.934	5543.23
713.187	5468.23
713.44	5417.23
713.692	5509.23
713.945	5435.23
714.198	5369.23
714.451	5339.23
714.704	5476.23
714.956	5520.23
715.209	5552.23
715.462	5509.23
715.715	5496.23
715.967	5438.23
716.22	5244.23
716.473	5272.23
716.725	5439.23
716.978	5402.23
717.231	5360.23
717.484	5385.23
717.736	5316.23
717.989	5230.23
718.242	5155.23
718.494	5271.23
718.747	5388.23
718.999	5300.23
719.252	5299.23
719.505	5253.23
719.757	5271.23
720.01	5227.23
720.263	5169.23
720.515	5153.23
720.768	5218.23
721.02	5228.23
721.273	5102.23
721.525	5063.23
721.778	5165.23
722.031	5252.23
722.283	5073.23
722.536	5033.23
722.788	5117.23
723.041	5069.23
723.293	4959.23
723.546	4995.23
723.798	5074.23
724.051	5135.23
724.303	5043.23
724.556	5027.23
724.808	5130.23
725.061	5085.23
725.313	4983.23
725.566	4951.23
725.818	4948.23
726.071	4935.23
726.323	4830.23
726.575	4888.23
726.828	5065.23
727.08	5012.23
727.333	4842.23
727.585	4892.23
727.837	4931.23
728.09	4913.23
728.342	4737.23
728.595	4801.23
728.847	5019.23
729.099	4742.23
729.352	4731.23
729.604	4789.23
729.856	4842.23
730.109	4825.23
730.361	4694.23
730.613	4817.23
730.866	4892.23
731.118	4733.23
731.37	4633.23
731.622	4630.23
731.875	4735.23
732.127	4793.23
732.379	4742.23
732.631	4746.23
732.884	4742.23
733.136	4638.23
733.388	4552.23
733.64	4626.23
733.893	4750.23
734.145	4650.23
734.397	4495.23
734.649	4495.23
734.901	4581.23
735.154	4481.23
735.406	4396.23
735.658	4461.23
735.91	4574.23
736.162	4504.23
736.414	4377.23
736.667	4501.23
736.919	4524.23
737.171	4381.23
737.423	4363.23
737.675	4408.23
737.927	4473.23
738.179	4412.23
738.431	4354.23
738.684	4295.23
738.936	4362.23
739.188	4417.23
739.44	4187.23
739.692	4221.23
739.944	4330.23
740.196	4302.23
740.448	4212.23
740.7	4197.23
740.952	4217.23
741.204	4291.23
741.456	4147.23
741.708	4181.23
741.96	4226.23
742.212	4281.23
742.464	4264.23
742.716	4107.23
742.968	4203.23
743.22	4129.23
743.472	4021.23
743.724	4114.23
743.976	4263.23
744.228	4246.23
744.48	3994.23
744.732	4040.23
744.983	4218.23
745.235	4174.23
745.487	4105.23
745.739	4133.23
745.991	4126.23
746.243	4205.23
746.495	4029.23
746.747	4050.23
746.999	4182.23
747.25	4132.23
747.502	4062.23
747.754	4126.23
748.006	4067.23
748.258	4186.23
748.51	4194.23
748.761	4042.23
749.013	4089.23
749.265	4093.23
749.517	4067.23
749.768	4136.23
750.02	4162.23
750.272	4128.23
750.524	3925.23
750.776	3899.23
751.027	4104.23
751.279	4132.23
751.531	3875.23
751.782	3997.23
752.034	4049.23
752.286	3937.23
752.538	3832.23
752.789	3922.23
753.041	4025.23
753.293	3995.23
753.544	3871.23
753.796	3896.23
754.048	3977.23
754.299	3977.23
754.551	3898.23
754.803	3823.23
755.054	3869.23
755.306	3950.23
755.558	3786.23
755.809	3792.23
756.061	3923.23
756.312	3817.23
756.564	3833.23
756.816	3842.23
757.067	3798.23
757.319	3768.23
757.57	3717.23
757.822	3814.23
758.073	3871.23
758.325	3854.23
758.577	3683.23
758.828	3674.23
759.08	3922.23
759.331	3894.23
759.583	3689.23
759.834	3739.23
760.086	3695.23
760.337	3708.23
760.589	3657.23
760.84	3681.23
761.092	3727.23
761.343	3682.23
761.595	3524.23
761.846	3693.23
762.097	3734.23
762.349	3649.23
762.6	3476.23
762.852	3637.23
763.103	3765.23
763.355	3574.23
763.606	3521.23
763.857	3657.23
764.109	3757.23
764.36	3648.23
764.612	3532.23
764.863	3634.23
765.114	3623.23
765.366	3501.23
765.617	3371.23
765.868	3444.23
766.12	3627.23
766.371	3610.23
766.622	3406.23
766.874	3476.23
767.125	3579.23
767.376	3447.23
767.628	3369.23
767.879	3434.23
768.13	3529.23
768.381	3498.23
768.633	3462.23
768.884	3457.23
769.135	3510.23
769.386	3489.23
769.638	3420.23
769.889	3457.23
770.14	3490.23
770.391	3379.23
770.643	3326.23
770.894	3309.23
771.145	3398.23
771.396	3330.23
771.647	3260.23
771.899	3392.23
772.15	3426.23
772.401	3338.23
772.652	3222.23
772.903	3251.23
773.154	3593.23
773.406	3837.23
773.657	3275.23
773.908	3205.23
774.159	3305.23
774.41	3337.23
774.661	3209.23
774.912	3234.23
775.163	3386.23
775.414	3342.23
775.666	3112.23
775.917	3144.23
776.168	3209.23
776.419	3179.23
776.67	3117.23
776.921	3074.23
777.172	3145.23
777.423	3184.23
777.674	3203.23
777.925	3188.23
778.176	3151.23
778.427	3149.23
778.678	3049.23
778.929	3067.23
779.18	3160.23
779.431	3045.23
779.682	3037.23
779.933	3084.23
780.184	3121.23
780.435	3074.23
780.686	3022.23
780.937	3087.23
781.188	3100.23
781.439	3208.23
781.69	3152.23
781.941	3085.23
782.191	3076.23
782.442	3051.23
782.693	2945.23
782.944	2927.23
783.195	3027.23
783.446	3052.23
783.697	3036.23
783.948	2946.23
784.199	2980.23
784.449	2933.23
784.7	2937.23
784.951	2941.23
785.202	3102.23
785.453	3042.23
785.704	2847.23
785.954	2827.23
786.205	2919.23
786.456	2866.23
786.707	2774.23
786.958	2814.23
787.208	2965.23
787.459	2898.23
787.71	2865.23
787.961	2848.23
788.211	2870.23
788.462	2865.23
788.713	2819.23
788.964	2776.23
789.214	2899.23
789.465	2885.23
789.716	2828.23
789.967	2829.23
790.217	2830.23
790.468	2788.23
790.719	2738.23
790.969	2790.23
791.22	2836.23
791.471	2876.23
791.721	2870.23
791.972	2748.23
792.223	2809.23
792.473	2735.23
792.724	2733.23
792.975	2696.23
793.225	2748.23
793.476	2745.23
793.726	2672.23
793.977	2744.23
794.228	2846.23
794.478	2742.23
794.729	2655.23
794.979	2727.23
795.23	2744.23
795.481	2702.23
795.731	2581.23
795.982	2647.23
796.232	2665.23
796.483	2626.23
796.733	2594.23
796.984	2675.23
797.234	2724.23
797.485	2735.23
797.735	2552.23
797.986	2563.23
798.236	2659.23
798.487	2599.23
798.737	2600.23
798.988	2694.23
799.238	2732.23
799.489	2599.23
799.739	2546.23
799.99	2573.23
800.24	2650.23
800.491	2726.23
800.741	2565.23
800.991	2474.23
801.242	2576.23
801.492	2587.23
801.743	2518.23
801.993	2763.23
802.244	2974.23
802.494	2585.23
802.744	2498.23
802.995	2528.23
803.245	2563.23
803.495	2541.23
803.746	2474.23
803.996	2536.23
804.246	2520.23
804.497	2533.23
804.747	2392.23
804.997	2489.23
805.248	2486.23
805.498	2436.23
805.748	2457.23
805.999	2339.23
806.249	2417.23
806.499	2410.23
806.75	2315.23
807	2357.23
807.25	2471.23
807.5	2375.23
807.751	2402.23
808.001	2417.23
808.251	2416.23
808.501	2503.23
808.752	2478.23
809.002	2434.23
809.252	2439.23
809.502	2370.23
809.752	2314.23
810.003	2280.23
810.253	2362.23
810.503	2393.23
810.753	2422.23
811.003	2400.23
811.254	2430.23
811.504	2349.23
811.754	2305.23
812.004	2326.23
812.254	2547.23
812.504	2390.23
812.754	2278.23
813.005	2350.23
813.255	2447.23
813.505	2374.23
813.755	2268.23
814.005	2294.23
814.255	2301.23
814.505	2317.23
814.755	2223.23
815.005	2230.23
815.255	2310.23
815.505	2275.23
815.756	2326.23
816.006	2318.23
816.256	2253.23
816.506	2198.23
816.756	2138.23
817.006	2170.23
817.256	2294.23
817.506	2283.23
817.756	2226.23
818.006	2211.23
818.256	2218.23
818.506	2237.23
818.756	2131.23
819.006	2174.23
819.256	2257.23
819.506	2222.23
819.756	2139.23
820.006	2215.23
820.255	2213.23
820.505	2221.23
820.755	2119.23
821.005	2145.23
821.255	2253.23
821.505	2187.23
821.755	2114.23
822.005	2186.23
822.255	2253.23
822.505	2159.23
822.755	2201.23
823.004	2061.23
823.254	2074.23
823.504	2193.23
823.754	2163.23
824.004	2082.23
824.254	2199.23
824.504	2172.23
824.753	2178.23
825.003	2168.23
825.253	2241.23
825.503	2127.23
825.753	2074.23
826.002	2139.23
826.252	2336.23
826.502	2147.23
826.752	2046.23
827.002	2035.23
827.251	2131.23
827.501	2058.23
827.751	1991.23
828.001	2051.23
828.25	2130.23
828.5	1965.23
828.75	1974.23
829	2078.23
829.249	2182.23
829.499	2034.23
829.749	2008.23
829.998	2047.23
830.248	2075.23
830.498	1942.23
830.748	1962.23
830.997	2017.23
831.247	2089.23
831.497	2103.23
831.746	2034.23
831.996	2074.23
832.246	2170.23
832.495	2187.23
832.745	1942.23
832.994	1946.23
833.244	2063.23
833.494	1973.23
833.743	1912.23
833.993	1973.23
834.243	2034.23
834.492	2005.23
834.742	1974.23
834.991	1946.23
835.241	2137.23
835.49	1999.23
835.74	1834.23
835.99	1936.23
836.239	2043.23
836.489	2073.23
836.738	1961.23
836.988	1850.23
837.237	1939.23
837.487	2058.23
837.736	1919.23
837.986	1875.23
838.235	1973.23
838.485	1925.23
838.734	1897.23
838.984	1969.23
839.233	1930.23
839.483	1853.23
839.732	1802.23
839.982	1874.23
840.231	1927.23
840.481	1893.23
840.73	1801.23
840.979	1865.23
841.229	1887.23
841.478	1871.23
841.728	1739.23
841.977	1715.23
842.227	1760.23
842.476	1730.23
842.725	1722.23
842.975	1753.23
843.224	1882.23
843.474	1942.23
843.723	1815.23
843.972	1790.23
844.222	1828.23
844.471	1896.23
844.72	1779.23
844.97	1751.23
845.219	1815.23
845.468	1817.23
845.718	1775.23
845.967	1808.23
846.216	1847.23
846.466	1910.23
846.715	1740.23
846.964	1748.23
847.214	1746.23
847.463	1695.23
847.712	1744.23
847.961	1715.23
848.211	1774.23
848.46	1735.23
848.709	1694.23
848.958	1629.23
849.208	1698.23
849.457	1716.23
849.706	1731.23
849.955	1702.23
850.205	1679.23
850.454	1794.23
850.703	1811.23
850.952	1760.23
851.201	1805.23
851.451	1723.23
851.7	1692.23
851.949	1596.23
852.198	1718.23
852.447	1691.23
852.696	1603.23
852.946	1649.23
853.195	1735.23
853.444	1726.23
853.693	1555.23
853.942	1530.23
854.191	1657.23
854.44	1700.23
854.689	1604.23
854.939	1554.23
855.188	1561.23
855.437	1592.23
855.686	1542.23
855.935	1582.23
856.184	1645.23
856.433	1676.23
856.682	1623.23
856.931	1597.23
857.18	1620.23
857.429	1543.23
857.678	1477.23
857.927	1537.23
858.176	1561.23
858.425	1483.23
858.674	1423.23
858.924	1510.23
859.173	1546.23
859.422	1562.23
859.671	1426.23
859.92	1471.23
860.169	1505.23
860.417	1558.23
860.666	1478.23
860.915	1434.23
861.164	1517.23
861.413	1443.23
861.662	1377.23
861.911	1412.23
862.16	1556.23
862.409	1506.23
862.658	1362.23
862.907	1387.23
863.156	1519.23
863.405	1494.23
863.654	1366.23
863.903	1345.23
864.151	1433.23
864.4	1462.23
864.649	1412.23
864.898	1447.23
865.147	1513.23
865.396	1535.23
865.645	1374.23
865.894	1404.23
866.142	1548.23
866.391	1433.23
866.64	1302.23
866.889	1416.23
867.138	1568.23
867.387	1457.23
867.635	1341.23
867.884	1430.23
868.133	1504.23
868.382	1404.23
868.631	1254.23
868.879	1293.23
869.128	1395.23
869.377	1366.23
869.626	1311.23
869.874	1322.23
870.123	1414.23
870.372	1371.23
870.621	1241.23
870.869	1281.23
871.118	1381.23
871.367	1356.23
871.616	1247.23
871.864	1368.23
872.113	1399.23
872.362	1349.23
872.61	1261.23
872.859	1334.23
873.108	1413.23
873.357	1313.23
873.605	1223.23
873.854	1235.23
874.103	1260.23
874.351	1252.23
874.6	1233.23
874.848	1271.23
875.097	1324.23
875.346	1328.23
875.594	1203.23
875.843	1317.23
876.092	1463.23
876.34	1339.23
876.589	1221.23
876.837	1116.23
877.086	1214.23
877.335	1264.23
877.583	1212.23
877.832	1294.23
878.08	1388.23
878.329	1275.23
878.578	1192.23
878.826	1231.23
879.075	1310.23
879.323	1291.23
879.572	1191.23
879.82	1309.23
880.069	1256.23
880.317	1233.23
880.566	1141.23
880.814	1246.23
881.063	1364.23
881.311	1257.23
881.56	1265.23
881.808	1191.23
882.057	1240.23
882.305	1209.23
882.554	1218.23
882.802	1098.23
883.051	1147.23
883.299	1177.23
883.548	1128.23
883.796	1201.23
884.045	1199.23
884.293	1142.23
884.541	1009.23
884.79	992.23
885.038	1081.23
885.287	1108.23
885.535	1134.23
885.783	1153.23
886.032	1124.23
886.28	1099.23
886.529	1034.23
886.777	1080.23
887.025	1203.23
887.274	1093.23
887.522	1030.23
887.77	1049.23
888.019	1072.23
888.267	1043.23
888.516	967.23
888.764	1019.23
889.012	1093.23
889.261	1074.23
889.509	1008.23
889.757	1018.23
890.005	1045.23
890.254	996.23
890.502	1058.23
890.75	1247.23
890.999	1223.23
891.247	1120.23
891.495	1053.23
891.743	1052.23
891.992	1181.23
892.24	1053.23
892.488	958.23
892.737	995.23
892.985	1075.23
893.233	1053.23
893.481	978.23
893.729	977.23
893.978	1139.23
894.226	1130.23
894.474	955.23
894.722	982.23
894.97	981.23
895.219	954.23
895.467	997.23
895.715	1017.23
895.963	996.23
896.211	942.23
896.46	853.23
896.708	990.23
896.956	1070.23
897.204	1121.23
897.452	1013.23
897.7	960.23
897.948	1002.23
898.197	974.23
898.445	941.23
898.693	945.23
898.941	980.23
899.189	980.23
899.437	944.23
899.685	1025.23
899.933	959.23
900.181	958.23
900.43	893.23
900.678	889.23
900.926	954.23
901.174	929.23
901.422	892.23
901.67	889.23
901.918	953.23
902.166	923.23
902.414	786.23
902.662	841.23
902.91	946.23
903.158	931.23
903.406	853.23
903.654	882.23
903.902	907.23
904.15	881.23
904.398	771.23
904.646	865.23
904.894	929.23
905.142	934.23
905.39	871.23
905.638	804.23
905.886	853.23
906.134	838.23
906.382	833.23
906.63	813.23
906.878	910.23
907.126	866.23
907.374	775.23
907.622	787.23
907.869	923.23
908.117	881.23
908.365	823.23
908.613	795.23
908.861	819.23
909.109	795.23
909.357	743.23
909.605	799.23
909.853	888.23
910.1	835.23
910.348	681.23
910.596	721.23
910.844	893.23
911.092	928.23
911.34	809.23
911.588	795.23
911.835	857.23
912.083	804.23
912.331	802.23
912.579	825.23
912.827	983.23
913.075	863.23
913.322	712.23
913.57	718.23
913.818	853.23
914.066	790.23
914.313	710.23
914.561	796.23
914.809	821.23
915.057	743.23
915.305	713.23
915.552	721.23
915.8	829.23
916.048	730.23
916.296	663.23
916.543	789.23
916.791	852.23
917.039	771.23
917.286	650.23
917.534	697.23
917.782	803.23
918.03	724.23
918.277	620.23
918.525	622.23
918.773	734.23
919.02	717.23
919.268	639.23
919.516	676.23
919.763	674.23
920.011	678.23
920.259	597.23
920.506	669.23
920.754	755.23
921.002	750.23
921.249	728.23
921.497	677.23
921.745	713.23
921.992	735.23
922.24	592.23
922.487	720.23
922.735	873.23
922.983	770.23
923.23	678.23
923.478	626.23
923.725	716.23
923.973	717.23
924.221	665.23
924.468	716.23
924.716	715.23
924.963	679.23
925.211	615.23
925.458	676.23
925.706	795.23
925.953	806.23
926.201	610.23
926.448	604.23
926.696	704.23
926.944	645.23
927.191	569.23
927.439	604.23
927.686	636.23
927.934	642.23
928.181	545.23
928.429	557.23
928.676	612.23
928.923	546.23
929.171	494.23
929.418	637.23
929.666	698.23
929.913	687.23
930.161	481.23
930.408	511.23
930.656	599.23
930.903	642.23
931.151	502.23
931.398	550.23
931.645	685.23
931.893	565.23
932.14	548.23
932.388	567.23
932.635	693.23
932.882	740.23
933.13	611.23
933.377	535.23
933.625	629.23
933.872	539.23
934.119	480.23
934.367	535.23
934.614	525.23
934.861	497.23
935.109	499.23
935.356	562.23
935.603	621.23
935.851	530.23
936.098	489.23
936.345	549.23
936.593	582.23
936.84	529.23
937.087	410.23
937.335	477.23
937.582	543.23
937.829	582.23
938.077	532.23
938.324	513.23
938.571	566.23
938.818	473.23
939.066	431.23
939.313	446.23
939.56	569.23
939.807	554.23
940.055	433.23
940.302	463.23
940.549	629.23
940.796	563.23
941.044	488.23
941.291	507.23
941.538	659.23
941.785	549.23
942.033	482.23
942.28	545.23
942.527	573.23
942.774	538.23
943.021	383.23
943.269	435.23
943.516	553.23
943.763	564.23
944.01	514.23
944.257	555.23
944.504	613.23
944.752	564.23
944.999	526.23
945.246	442.23
945.493	512.23
945.74	498.23
945.987	406.23
946.234	493.23
946.482	586.23
946.729	460.23
946.976	396.23
947.223	438.23
947.47	595.23
947.717	553.23
947.964	574.23
948.211	511.23
948.458	573.23
948.705	501.23
948.952	397.23
949.2	461.23
949.447	595.23
949.694	564.23
949.941	417.23
950.188	420.23
950.435	426.23
950.682	441.23
950.929	338.23
951.176	393.23
951.423	535.23
951.67	509.23
951.917	470.23
952.164	481.23
952.411	526.23
952.658	570.23
952.905	422.23
953.152	362.23
953.399	485.23
953.646	482.23
953.893	361.23
954.14	393.23
954.387	463.23
954.634	446.23
954.881	377.23
955.128	436.23
955.375	432.23
955.622	421.23
955.869	422.23
956.115	405.23
956.362	476.23
956.609	427.23
956.856	348.23
957.103	372.23
957.35	479.23
957.597	469.23
957.844	397.23
958.091	390.23
958.338	487.23
958.585	435.23
958.831	254.23
959.078	313.23
959.325	471.23
959.572	369.23
959.819	277.23
960.066	251.23
960.313	388.23
960.559	381.23
960.806	249.23
961.053	280.23
961.3	438.23
961.547	451.23
961.794	255.23
962.04	427.23
962.287	438.23
962.534	307.23
962.781	305.23
963.028	388.23
963.274	492.23
963.521	373.23
963.768	295.23
964.015	365.23
964.262	523.23
964.508	349.23
964.755	268.23
965.002	286.23
965.249	329.23
965.495	265.23
965.742	252.23
965.989	274.23
966.236	386.23
966.482	334.23
966.729	263.23
966.976	241.23
967.222	305.23
967.469	298.23
967.716	231.23
967.963	234.23
968.209	329.23
968.456	305.23
968.703	186.23
968.949	282.23
969.196	460.23
969.443	455.23
969.689	228.23
969.936	194.23
970.183	306.23
970.429	260.23
970.676	221.23
970.923	295.23
971.169	347.23
971.416	249.23
971.663	199.23
971.909	254.23
972.156	335.23
972.402	331.23
972.649	266.23
972.896	295.23
973.142	321.23
973.389	327.23
973.635	225.23
973.882	337.23
974.129	401.23
974.375	275.23
974.622	176.23
974.868	197.23
975.115	292.23
975.361	236.23
975.608	206.23
975.855	342.23
976.101	358.23
976.348	276.23
976.594	203.23
976.841	275.23
977.087	284.23
977.334	306.23
977.58	163.23
977.827	166.23
978.073	309.23
978.32	295.23
978.566	163.23
978.813	235.23
979.059	267.23
979.306	246.23
979.552	153.23
979.799	224.23
980.045	235.23
980.292	235.23
980.538	168.23
980.785	166.23
981.031	202.23
981.278	183.23
981.524	115.23
981.771	261.23
982.017	394.23
982.263	301.23
982.51	169.23
982.756	234.23
983.003	293.23
983.249	236.23
983.495	174.23
983.742	152.23
983.988	211.23
984.235	242.23
984.481	145.23
984.727	136.23
984.974	265.23
985.22	257.23
985.467	188.23
985.713	191.23
985.959	289.23
986.206	272.23
986.452	190.23
986.698	239.23
986.945	239.23
987.191	289.23
987.437	293.23
987.684	215.23
987.93	364.23
988.176	277.23
988.423	80.23
988.669	161.23
988.915	342.23
989.162	209.23
989.408	86.23
989.654	142.23
989.901	194.23
990.147	193.23
990.393	194.23
990.639	250.23
990.886	268.23
991.132	319.23
991.378	269.23
991.625	387.23
991.871	355.23
992.117	271.23
992.363	179.23
992.61	214.23
992.856	306.23
993.102	193.23
993.348	139.23
993.594	170.23
993.841	201.23
994.087	321.23
994.333	193.23
994.579	183.23
994.826	227.23
995.072	214.23
995.318	33.23
995.564	99.23
995.81	234.23
996.057	193.23
996.303	76.23
996.549	90.23
996.795	194.23
997.041	179.23
997.287	140.23
997.534	136.23
997.78	194.23
998.026	201.23
998.272	97.23
998.518	84.23
998.764	221.23
999.01	255.23
999.256	154.23
999.503	117.23
999.749	139.23
999.995	107.23
1000.241	86.23
1000.487	163.23
1000.733	201.23
1000.979	177.23
1001.225	154.23
1001.471	211.23
1001.718	234.23
1001.964	266.23
1002.21	105.23
1002.456	126.23
1002.702	281.23
1002.948	181.23
1003.194	94.23
1003.44	92.23
1003.686	178.23
1003.932	124.23
1004.178	80.23
1004.424	141.23
1004.67	284.23
1004.916	256.23
1005.162	145.23
1005.408	108.23
1005.654	245.23
1005.9	82.23
1006.146	28.23
1006.392	101.23
1006.638	161.23
1006.884	139.23
1007.13	66.23
1007.376	41.23
1007.622	219.23
1007.868	231.23
1008.114	109.23
1008.36	188.23
1008.606	205.23
1008.852	214.23
1009.098	144.23
1009.344	170.23
1009.59	155.23
1009.836	39.23
1010.082	-32.77
1010.328	69.23
1010.574	168.23
1010.82	82.23
1011.065	-28.77
1011.311	-4.77
1011.557	121.23
1011.803	109.23
1012.049	29.23
1012.295	74.23
1012.541	132.23
1012.787	133.23
1013.033	6.23
1013.278	-25.77
1013.524	127.23
1013.77	200.23
1014.016	87.23
1014.262	86.23
1014.508	207.23
1014.754	34.23
1015	3.23
1015.245	173.23
1015.491	185.23
1015.737	151.23
1015.983	18.23
1016.229	-3.77
1016.475	98.23
1016.72	218.23
1016.966	239.23
1017.212	132.23
1017.458	201.23
1017.704	121.23
1017.949	5.23
1018.195	154.23
1018.441	237.23
1018.687	197.23
1018.933	61.23
1019.178	52.23
1019.424	204.23
1019.67	195.23
1019.916	-4.77
1020.161	60.23
1020.407	130.23
1020.653	67.23
1020.899	8.23
1021.144	69.23
1021.39	136.23
1021.636	29.23
1021.882	-52.77
1022.127	76.23
1022.373	223.23
1022.619	157.23
1022.865	44.23
1023.11	55.23
1023.356	162.23
1023.602	80.23
1023.847	37.23
1024.093	76.23
1024.339	40.23
1024.584	26.23
1024.83	15.23
1025.076	14.23
1025.321	145.23
1025.567	113.23
1025.813	-1.77
1026.058	70.23
1026.304	141.23
1026.55	68.23
1026.795	37.23
1027.041	33.23
1027.287	99.23
1027.532	133.23
1027.778	86.23
1028.024	65.23
1028.269	94.23
1028.515	10.23
1028.76	-36.77
1029.006	31.23
1029.252	145.23
1029.497	66.23
1029.743	45.23
1029.989	-8.77
1030.234	127.23
1030.48	201.23
1030.725	7.23
1030.971	39.23
1031.216	175.23
1031.462	85.23
1031.708	-62.77
1031.953	-13.77
1032.199	83.23
1032.444	71.23
1032.69	11.23
1032.935	1.23
1033.181	129.23
1033.426	34.23
1033.672	-118.77
1033.918	-52.77
1034.163	46.23
1034.409	18.23
1034.654	-19.77
1034.9	103.23
1035.145	138.23
1035.391	51.23
1035.636	-65.77
1035.882	14.23
1036.127	0.23
1036.373	-19.77
1036.618	-118.77
1036.864	-7.77
1037.109	130.23
1037.355	33.23
1037.6	-44.77
1037.845	-16.77
1038.091	189.23
1038.336	152.23
1038.582	146.23
1038.827	234.23
1039.073	81.23
1039.318	-7.77
1039.564	-98.77
1039.809	-25.77
1040.055	154.23
1040.3	137.23
1040.545	-40.77
1040.791	-40.77
1041.036	33.23
1041.282	45.23
1041.527	111.23
1041.772	-50.77
1042.018	25.23
1042.263	49.23
1042.509	-109.77
1042.754	-78.77
1042.999	61.23
1043.245	41.23
1043.49	-133.77
1043.736	-56.77
1043.981	37.23
1044.226	41.23
1044.472	35.23
1044.717	24.23
1044.962	128.23
1045.208	33.23
1045.453	-181.77
1045.698	-99.77
1045.944	105.23
1046.189	60.23
1046.434	-42.77
1046.68	-19.77
1046.925	167.23
1047.17	-2.77
1047.416	-167.77
1047.661	-83.77
1047.906	63.23
1048.152	54.23
1048.397	-13.77
1048.642	-25.77
1048.887	145.23
1049.133	145.23
1049.378	-46.77
1049.623	-58.77
1049.869	65.23
1050.114	-2.77
1050.359	-64.77
1050.604	11.23
1050.85	161.23
1051.095	14.23
1051.34	-75.77
1051.585	-11.77
1051.831	152.23
1052.076	8.23
1052.321	-173.77
1052.566	-72.77
1052.812	120.23
1053.057	34.23
1053.302	-73.77
1053.547	40.23
1053.792	101.23
1054.038	90.23
1054.283	-96.77
1054.528	-43.77
1054.773	33.23
1055.018	38.23
1055.264	-74.77
1055.509	-91.77
1055.754	21.23
1055.999	-43.77
1056.244	-137.77
1056.49	-56.77
1056.735	23.23
1056.98	-26.77
1057.225	-114.77
1057.47	77.23
1057.715	-5.77
1057.96	-89.77
1058.206	-119.77
1058.451	-13.77
1058.696	101.23
1058.941	47.23
1059.186	-128.77
1059.431	-104.77
1059.676	84.23
1059.922	38.23
1060.167	131.23
1060.412	294.23
1060.657	65.23
1060.902	-0.77
1061.147	-165.77
1061.392	-78.77
1061.637	54.23
1061.882	-9.77
1062.127	-149.77
1062.373	-139.77
1062.618	127.23
1062.863	133.23
1063.108	-61.77
1063.353	-111.77
1063.598	-9.77
1063.843	-30.77
1064.088	-104.77
1064.333	-109.77
1064.578	50.23
1064.823	62.23
1065.068	-171.77
1065.313	-97.77
1065.558	54.23
1065.803	56.23
1066.048	-138.77
1066.293	-141.77
1066.538	76.23
1066.783	17.23
1067.028	-158.77
1067.273	-141.77
1067.518	46.23
1067.763	-17.77
1068.008	-177.77
1068.253	-106.77
1068.498	81.23
1068.743	11.23
1068.988	-145.77
1069.233	-136.77
1069.478	73.23
1069.723	123.23
1069.968	-61.77
1070.213	-15.77
1070.458	75.23
1070.703	-13.77
1070.948	-200.77
1071.193	-82.77
1071.438	67.23
1071.683	82.23
1071.928	-39.77
1072.173	-54.77
1072.418	15.23
1072.663	1.23
1072.908	-140.77
1073.152	-88.77
1073.397	88.23
1073.642	-20.77
1073.887	-67.77
1074.132	51.23
1074.377	24.23
1074.622	-1.77
1074.867	-120.77
1075.112	-46.77
1075.357	130.23
1075.601	-16.77
1075.846	-80.77
1076.091	7.23
1076.336	63.23
1076.581	-54.77
1076.826	-164.77
1077.071	-72.77
1077.315	175.23
1077.56	93.23
1077.805	-123.77
1078.05	-70.77
1078.295	-15.77
1078.54	-30.77
1078.785	-146.77
1079.029	-96.77
1079.274	65.23
1079.519	-77.77
1079.764	-160.77
1080.009	-33.77
1080.253	29.23
1080.498	-65.77
1080.743	-202.77
1080.988	-57.77
1081.233	159.23
1081.478	68.23
1081.722	-132.77
1081.967	-18.77
1082.212	140.23
1082.457	34.23
1082.701	-86.77
1082.946	-75.77
1083.191	53.23
1083.436	-53.77
1083.681	-213.77
1083.925	-114.77
1084.17	0.23
1084.415	21.23
1084.66	-177.77
1084.904	-81.77
1085.149	-3.77
1085.394	-16.77
1085.639	-196.77
1085.883	-103.77
1086.128	154.23
1086.373	162.23
1086.617	-59.77
1086.862	-128.77
1087.107	-3.77
1087.352	-66.77
1087.596	-146.77
1087.841	-9.77
1088.086	40.23
1088.33	15.23
1088.575	-229.77
1088.82	-101.77
1089.064	71.23
1089.309	-62.77
1089.554	-201.77
1089.798	-162.77
1090.043	35.23
1090.288	-12.77
1090.533	-197.77
1090.777	-118.77
1091.022	28.23
1091.266	60.23
1091.511	-123.77
1091.756	-54.77
1092	98.23
1092.245	93.23
1092.49	-152.77
1092.734	-112.77
1092.979	73.23
1093.224	-25.77
1093.468	-185.77
1093.713	-129.77
1093.957	8.23
1094.202	-57.77
1094.447	-234.77
1094.691	-115.77
1094.936	35.23
1095.181	1.23
1095.425	-173.77
1095.67	-155.77
1095.914	15.23
1096.159	9.23
1096.403	-139.77
1096.648	-67.77
1096.893	49.23
1097.137	-90.77
1097.382	-231.77
1097.626	-161.77
1097.871	5.23
1098.115	-52.77
1098.36	-226.77
1098.605	-121.77
1098.849	-56.77
1099.094	-119.77
1099.338	-200.77
1099.583	-115.77
1099.827	113.23
1100.072	31.23
1100.316	-154.77
1100.561	-94.77
1100.805	56.23
1101.05	7.23
1101.294	-191.77
1101.539	-149.77
1101.783	4.23
1102.028	5.23
1102.273	-142.77
1102.517	-75.77
1102.761	42.23
1103.006	-73.77
1103.25	-282.77
1103.495	-177.77
1103.739	31.23
1103.984	86.23
1104.228	-99.77
1104.473	-20.77
1104.717	34.23
1104.962	-7.77
1105.206	-116.77
1105.451	-147.77
1105.695	12.23
1105.94	-13.77
1106.184	-141.77
1106.429	-97.77
1106.673	1.23
1106.917	53.23
1107.162	-162.77
1107.406	-18.77
1107.651	141.23
1107.895	-83.77
1108.14	-190.77
1108.384	-105.77
1108.628	119.23
1108.873	93.23
1109.117	-141.77
1109.362	-124.77
1109.606	-30.77
1109.85	-25.77
1110.095	-174.77
1110.339	-106.77
1110.584	86.23
1110.828	26.23
1111.072	-104.77
1111.317	-117.77
1111.561	-21.77
1111.806	-45.77
1112.05	-177.77
1112.294	-86.77
1112.539	21.23
1112.783	-6.77
1113.027	-126.77
1113.272	-122.77
1113.516	-24.77
1113.76	-48.77
1114.005	-152.77
1114.249	-89.77
1114.493	69.23
1114.738	86.23
1114.982	-52.77
1115.226	-93.77
1115.471	-27.77
1115.715	-24.77
1115.959	-202.77
1116.204	-179.77
1116.448	-8.77
1116.692	-105.77
1116.937	-168.77
1117.181	-14.77
1117.425	-26.77
1117.67	-80.77
1117.914	-156.77
1118.158	-87.77
1118.402	148.23
1118.647	43.23
1118.891	-107.77
1119.135	-52.77
1119.38	85.23
1119.624	5.23
1119.868	-140.77
1120.112	-156.77
1120.357	-54.77
1120.601	-109.77
1120.845	-216.77
1121.089	-165.77
1121.334	8.23
