Data from HR4C21111__22__09-58-15-855.txt Node

Date: Mon Feb 22 09:58:15 IST 2021
User: Kapil
Spectrometer: HR4C2111
Trigger mode: 4
Integration Time (sec): 2.300000E0
Scans to average: 1
Electric dark correction enabled: true
Nonlinearity correction enabled: false
Boxcar width: 0
XAxis mode: Wavelengths
Number of Pixels in Spectrum: 3648
>>>>>Begin Spectral Data<<<<<
189.472	-455.69
189.745	-455.69
190.017	-455.69
190.289	-469.69
190.561	-296.69
190.834	-26.69
191.106	-121.69
191.378	12.31
191.65	-2.69
191.923	-151.69
192.195	-104.69
192.467	130.31
192.739	110.31
193.011	-15.69
193.284	93.31
193.556	184.31
193.828	-7.69
194.1	-99.69
194.372	-108.69
194.644	63.31
194.916	62.31
195.188	-159.69
195.46	-80.69
195.732	51.31
196.004	-12.69
196.276	-97.69
196.548	-49.69
196.82	75.31
197.092	56.31
197.364	-132.69
197.636	-92.69
197.908	21.31
198.18	-43.69
198.452	-96.69
198.724	-51.69
198.996	66.31
199.268	87.31
199.54	-23.69
199.811	-105.69
200.083	106.31
200.355	21.31
200.627	-179.69
200.899	-57.69
201.171	69.31
201.442	-51.69
201.714	-178.69
201.986	-107.69
202.258	68.31
202.529	125.31
202.801	12.31
203.073	81.31
203.345	189.31
203.616	12.31
203.888	-131.69
204.16	-146.69
204.431	79.31
204.703	-4.69
204.974	-133.69
205.246	-3.69
205.518	174.31
205.789	3.31
206.061	-123.69
206.332	-107.69
206.604	29.31
206.876	108.31
207.147	126.31
207.419	-1.69
207.69	129.31
207.962	-21.69
208.233	-180.69
208.505	-2.69
208.776	171.31
209.047	94.31
209.319	-123.69
209.59	-72.69
209.862	155.31
210.133	45.31
210.404	-142.69
210.676	-114.69
210.947	73.31
211.219	66.31
211.49	-119.69
211.761	-52.69
212.033	28.31
212.304	-29.69
212.575	-163.69
212.846	-62.69
213.118	44.31
213.389	-37.69
213.66	-97.69
213.931	-43.69
214.203	44.31
214.474	-24.69
214.745	-122.69
215.016	135.31
215.287	430.31
215.559	66.31
215.83	-112.69
216.101	-64.69
216.372	3.31
216.643	67.31
216.914	0.31
217.185	-78.69
217.456	146.31
217.727	15.31
217.998	-148.69
218.269	-42.69
218.54	51.31
218.811	-10.69
219.082	-108.69
219.353	-68.69
219.624	-14.69
219.895	-33.69
220.166	-126.69
220.437	-96.69
220.708	102.31
220.979	-7.69
221.25	-149.69
221.521	-88.69
221.792	49.31
222.063	96.31
222.334	46.31
222.604	178.31
222.875	175.31
223.146	76.31
223.417	-170.69
223.688	-35.69
223.958	112.31
224.229	-56.69
224.5	-187.69
224.771	-80.69
225.041	79.31
225.312	60.31
225.583	-99.69
225.854	-59.69
226.124	97.31
226.395	-2.69
226.666	-117.69
226.936	-97.69
227.207	66.31
227.478	-49.69
227.748	-95.69
228.019	48.31
228.289	236.31
228.56	-35.69
228.831	-44.69
229.101	54.31
229.372	86.31
229.642	-7.69
229.913	-158.69
230.183	-127.69
230.454	2.31
230.724	5.31
230.995	-93.69
231.265	-52.69
231.536	69.31
231.806	60.31
232.076	-94.69
232.347	-114.69
232.617	27.31
232.888	25.31
233.158	-49.69
233.428	-88.69
233.699	12.31
233.969	-38.69
234.239	-158.69
234.51	-99.69
234.78	53.31
235.05	-11.69
235.321	-105.69
235.591	-76.69
235.861	60.31
236.131	-42.69
236.402	-175.69
236.672	-82.69
236.942	43.31
237.212	40.31
237.483	-51.69
237.753	10.31
238.023	178.31
238.293	23.31
238.563	-76.69
238.833	-107.69
239.103	74.31
239.374	-17.69
239.644	-138.69
239.914	-32.69
240.184	130.31
240.454	1.31
240.724	-153.69
240.994	-61.69
241.264	34.31
241.534	82.31
241.804	-13.69
242.074	-86.69
242.344	-21.69
242.614	-35.69
242.884	-176.69
243.154	-120.69
243.424	49.31
243.694	58.31
243.964	-101.69
244.234	-79.69
244.503	119.31
244.773	-0.69
245.043	-214.69
245.313	-129.69
245.583	119.31
245.853	80.31
246.123	-163.69
246.392	-94.69
246.662	4.31
246.932	-7.69
247.202	-179.69
247.471	-65.69
247.741	261.31
248.011	111.31
248.281	-145.69
248.55	-80.69
248.82	78.31
249.09	16.31
249.359	-76.69
249.629	-68.69
249.899	63.31
250.168	66.31
250.438	-27.69
250.708	-101.69
250.977	89.31
251.247	80.31
251.516	-111.69
251.786	-42.69
252.055	136.31
252.325	20.31
252.595	-84.69
252.864	-59.69
253.134	49.31
253.403	-28.69
253.673	-181.69
253.942	-108.69
254.212	35.31
254.481	12.31
254.75	-134.69
255.02	-88.69
255.289	78.31
255.559	-1.69
255.828	-121.69
256.097	-27.69
256.367	34.31
256.636	-52.69
256.906	-129.69
257.175	-30.69
257.444	231.31
257.714	45.31
257.983	-82.69
258.252	-29.69
258.521	16.31
258.791	60.31
259.06	-91.69
259.329	-35.69
259.598	64.31
259.868	-1.69
260.137	-114.69
260.406	-13.69
260.675	83.31
260.944	27.31
261.214	-127.69
261.483	-37.69
261.752	183.31
262.021	29.31
262.29	-164.69
262.559	-109.69
262.828	31.31
263.097	-43.69
263.366	-208.69
263.635	-93.69
263.905	135.31
264.174	27.31
264.443	-198.69
264.712	-109.69
264.981	38.31
265.25	-61.69
265.519	-153.69
265.788	-142.69
266.057	37.31
266.325	78.31
266.594	-51.69
266.863	-121.69
267.132	28.31
267.401	6.31
267.67	-186.69
267.939	-147.69
268.208	30.31
268.477	78.31
268.745	-115.69
269.014	-91.69
269.283	137.31
269.552	50.31
269.821	-107.69
270.089	-6.69
270.358	-1.69
270.627	-18.69
270.896	-124.69
271.164	-145.69
271.433	37.31
271.702	98.31
271.971	-133.69
272.239	-137.69
272.508	27.31
272.777	-39.69
273.045	-49.69
273.314	-26.69
273.583	98.31
273.851	-4.69
274.12	-142.69
274.388	-122.69
274.657	1.31
274.926	-6.69
275.194	-155.69
275.463	-74.69
275.731	42.31
276	203.31
276.268	428.31
276.537	-64.69
276.805	34.31
277.074	31.31
277.342	-176.69
277.611	-89.69
277.879	113.31
278.148	42.31
278.416	-120.69
278.684	-116.69
278.953	-8.69
279.221	-20.69
279.49	-176.69
279.758	-92.69
280.026	-5.69
280.295	8.31
280.563	-94.69
280.831	1032.31
281.1	2457.31
281.368	223.31
281.636	-95.69
281.904	-114.69
282.173	-6.69
282.441	-46.69
282.709	-79.69
282.977	33.31
283.246	48.31
283.514	-27.69
283.782	-33.69
284.05	48.31
284.318	66.31
284.587	-32.69
284.855	-129.69
285.123	-52.69
285.391	74.31
285.659	55.31
285.927	-161.69
286.195	-59.69
286.463	63.31
286.732	-2.69
287	-110.69
287.268	-34.69
287.536	45.31
287.804	-29.69
288.072	-127.69
288.34	-69.69
288.608	83.31
288.876	-26.69
289.144	-106.69
289.412	-9.69
289.68	52.31
289.948	-13.69
290.215	-106.69
290.483	-92.69
290.751	110.31
291.019	111.31
291.287	-164.69
291.555	-111.69
291.823	36.31
292.091	-7.69
292.358	-62.69
292.626	-12.69
292.894	79.31
293.162	68.31
293.43	-86.69
293.697	-76.69
293.965	48.31
294.233	-43.69
294.501	-172.69
294.768	-61.69
295.036	78.31
295.304	34.31
295.572	-138.69
295.839	-107.69
296.107	115.31
296.375	1.31
296.642	-134.69
296.91	-106.69
297.178	66.31
297.445	188.31
297.713	105.31
297.98	-84.69
298.248	-23.69
298.516	-36.69
298.783	-117.69
299.051	-104.69
299.318	28.31
299.586	-24.69
299.853	-76.69
300.121	-74.69
300.388	42.31
300.656	-12.69
300.923	-144.69
301.191	-31.69
301.458	69.31
301.726	8.31
301.993	-130.69
302.26	-86.69
302.528	41.31
302.795	-10.69
303.063	-72.69
303.33	-45.69
303.597	52.31
303.865	36.31
304.132	-119.69
304.399	-111.69
304.667	-5.69
304.934	29.31
305.201	-104.69
305.469	-12.69
305.736	66.31
306.003	42.31
306.27	-48.69
306.538	-90.69
306.805	8.31
307.072	-10.69
307.339	-75.69
307.606	-26.69
307.874	178.31
308.141	81.31
308.408	-120.69
308.675	-99.69
308.942	-46.69
309.209	-63.69
309.477	-111.69
309.744	-90.69
310.011	27.31
310.278	35.31
310.545	-25.69
310.812	-49.69
311.079	145.31
311.346	217.31
311.613	71.31
311.88	-29.69
312.147	-53.69
312.414	-26.69
312.681	-100.69
312.948	-27.69
313.215	114.31
313.482	73.31
313.749	-90.69
314.016	-189.69
314.283	-49.69
314.55	77.31
314.817	-94.69
315.083	-125.69
315.35	-66.69
315.617	-125.69
315.884	-130.69
316.151	73.31
316.418	170.31
316.684	-14.69
316.951	-183.69
317.218	-92.69
317.485	21.31
317.752	-48.69
318.018	-118.69
318.285	0.31
318.552	41.31
318.819	-50.69
319.085	-137.69
319.352	-49.69
319.619	44.31
319.885	-31.69
320.152	-197.69
320.419	-101.69
320.685	44.31
320.952	-14.69
321.219	-50.69
321.485	87.31
321.752	31.31
322.019	-46.69
322.285	23.31
322.552	-7.69
322.818	159.31
323.085	-7.69
323.351	-118.69
323.618	-8.69
323.884	63.31
324.151	-43.69
324.417	-4.69
324.684	-63.69
324.95	-38.69
325.217	-125.69
325.483	-174.69
325.75	-24.69
326.016	13.31
326.283	-18.69
326.549	-170.69
326.815	-67.69
327.082	112.31
327.348	18.31
327.615	-99.69
327.881	-16.69
328.147	122.31
328.414	124.31
328.68	8.31
328.946	-29.69
329.212	41.31
329.479	13.31
329.745	-107.69
330.011	-111.69
330.278	17.31
330.544	-19.69
330.81	-11.69
331.076	-26.69
331.342	-18.69
331.609	-34.69
331.875	-79.69
332.141	-91.69
332.407	30.31
332.673	7.31
332.94	-9.69
333.206	-34.69
333.472	71.31
333.738	90.31
334.004	-108.69
334.27	-3.69
334.536	25.31
334.802	-17.69
335.068	-72.69
335.334	5.31
335.6	40.31
335.866	-19.69
336.132	-155.69
336.398	-87.69
336.664	-23.69
336.93	-29.69
337.196	-56.69
337.462	5.31
337.728	48.31
337.994	-32.69
338.26	-85.69
338.526	-29.69
338.792	-29.69
339.058	-31.69
339.324	-127.69
339.59	4.31
339.856	89.31
340.121	-36.69
340.387	-109.69
340.653	112.31
340.919	190.31
341.185	89.31
341.45	-50.69
341.716	43.31
341.982	148.31
342.248	-35.69
342.514	-76.69
342.779	3.31
343.045	43.31
343.311	6.31
343.576	-78.69
343.842	-10.69
344.108	145.31
344.374	17.31
344.639	-96.69
344.905	-56.69
345.171	81.31
345.436	-31.69
345.702	-73.69
345.967	84.31
346.233	116.31
346.499	63.31
346.764	-142.69
347.03	-45.69
347.295	-5.69
347.561	21.31
347.826	-33.69
348.092	-82.69
348.357	11.31
348.623	-17.69
348.888	-111.69
349.154	-53.69
349.419	89.31
349.685	42.31
349.95	-40.69
350.216	-20.69
350.481	84.31
350.747	-3.69
351.012	-117.69
351.277	-54.69
351.543	79.31
351.808	23.31
352.074	-124.69
352.339	-73.69
352.604	100.31
352.87	49.31
353.135	-64.69
353.4	11.31
353.666	79.31
353.931	45.31
354.196	-73.69
354.461	-73.69
354.727	89.31
354.992	73.31
355.257	-54.69
355.522	49.31
355.788	82.31
356.053	129.31
356.318	-2.69
356.583	-19.69
356.848	176.31
357.113	310.31
357.379	40.31
357.644	11.31
357.909	198.31
358.174	221.31
358.439	-31.69
358.704	45.31
358.969	173.31
359.234	195.31
359.499	23.31
359.765	89.31
360.03	202.31
360.295	216.31
360.56	47.31
360.825	107.31
361.09	304.31
361.355	146.31
361.62	97.31
361.885	135.31
362.15	129.31
362.415	158.31
362.679	95.31
362.944	256.31
363.209	245.31
363.474	273.31
363.739	217.31
364.004	147.31
364.269	234.31
364.534	271.31
364.799	205.31
365.063	218.31
365.328	350.31
365.593	346.31
365.858	213.31
366.123	221.31
366.387	361.31
366.652	265.31
366.917	174.31
367.182	263.31
367.447	411.31
367.711	370.31
367.976	304.31
368.241	382.31
368.505	454.31
368.77	362.31
369.035	351.31
369.299	413.31
369.564	441.31
369.829	381.31
370.093	354.31
370.358	330.31
370.623	458.31
370.887	504.31
371.152	366.31
371.416	455.31
371.681	494.31
371.946	402.31
372.21	381.31
372.475	541.31
372.739	590.31
373.004	539.31
373.268	515.31
373.533	560.31
373.797	609.31
374.062	633.31
374.326	479.31
374.591	564.31
374.855	682.31
375.12	631.31
375.384	476.31
375.648	561.31
375.913	723.31
376.177	770.31
376.442	644.31
376.706	650.31
376.97	795.31
377.235	774.31
377.499	767.31
377.763	801.31
378.028	790.31
378.292	832.31
378.556	765.31
378.821	733.31
379.085	817.31
379.349	792.31
379.614	740.31
379.878	865.31
380.142	1053.31
380.406	962.31
380.671	968.31
380.935	1140.31
381.199	1261.31
381.463	1122.31
381.727	1085.31
381.991	1070.31
382.256	1144.31
382.52	1116.31
382.784	1153.31
383.048	1305.31
383.312	1239.31
383.576	1215.31
383.84	1143.31
384.104	1226.31
384.369	1325.31
384.633	1229.31
384.897	1191.31
385.161	1320.31
385.425	1409.31
385.689	1374.31
385.953	1331.31
386.217	1345.31
386.481	1482.31
386.745	1511.31
387.009	1511.31
387.273	1498.31
387.537	1559.31
387.801	1610.31
388.064	1553.31
388.328	1671.31
388.592	1735.31
388.856	1682.31
389.12	1645.31
389.384	1738.31
389.648	1785.31
389.912	1853.31
390.176	1906.31
390.439	2032.31
390.703	1831.31
390.967	1846.31
391.231	1819.31
391.495	1877.31
391.758	1979.31
392.022	2010.31
392.286	1877.31
392.55	1934.31
392.813	2095.31
393.077	2160.31
393.341	2081.31
393.605	2183.31
393.868	2160.31
394.132	2173.31
394.396	2129.31
394.659	2317.31
394.923	2282.31
395.187	2196.31
395.45	2224.31
395.714	2305.31
395.978	2327.31
396.241	2357.31
396.505	2309.31
396.768	2391.31
397.032	2472.31
397.295	2498.31
397.559	2470.31
397.823	2451.31
398.086	2576.31
398.35	2538.31
398.613	2482.31
398.877	2569.31
399.14	2705.31
399.404	2805.31
399.667	2748.31
399.931	2714.31
400.194	2800.31
400.457	2773.31
400.721	2767.31
400.984	2875.31
401.248	2825.31
401.511	2829.31
401.775	2727.31
402.038	2806.31
402.301	3035.31
402.565	3038.31
402.828	2849.31
403.091	2914.31
403.355	3128.31
403.618	3101.31
403.881	3073.31
404.145	3118.31
404.408	3204.31
404.671	3139.31
404.934	3209.31
405.198	3302.31
405.461	3326.31
405.724	3382.31
405.987	3368.31
406.251	3456.31
406.514	3570.31
406.777	3406.31
407.04	3316.31
407.303	3339.31
407.567	3493.31
407.83	3542.31
408.093	3421.31
408.356	3590.31
408.619	3642.31
408.882	3688.31
409.145	3636.31
409.408	3620.31
409.672	3721.31
409.935	3642.31
410.198	3533.31
410.461	3617.31
410.724	3881.31
410.987	3820.31
411.25	3625.31
411.513	3790.31
411.776	3858.31
412.039	3743.31
412.302	3723.31
412.565	3801.31
412.828	3799.31
413.091	3790.31
413.354	3691.31
413.617	3697.31
413.879	3807.31
414.142	3801.31
414.405	3617.31
414.668	3668.31
414.931	3815.31
415.194	3796.31
415.457	3678.31
415.72	3754.31
415.983	3714.31
416.245	3779.31
416.508	3703.31
416.771	3611.31
417.034	3760.31
417.297	3757.31
417.559	3730.31
417.822	3708.31
418.085	3800.31
418.348	3805.31
418.61	3667.31
418.873	3664.31
419.136	3685.31
419.399	3675.31
419.661	3710.31
419.924	3655.31
420.187	3796.31
420.449	3797.31
420.712	3729.31
420.975	3760.31
421.237	3843.31
421.5	3834.31
421.762	3921.31
422.025	3927.31
422.288	4003.31
422.55	3863.31
422.813	3793.31
423.075	3889.31
423.338	3997.31
423.601	4074.31
423.863	4024.31
424.126	4058.31
424.388	4139.31
424.651	4106.31
424.913	4085.31
425.176	4122.31
425.438	4163.31
425.701	4136.31
425.963	4025.31
426.225	4059.31
426.488	4090.31
426.75	4095.31
427.013	4131.31
427.275	4199.31
427.538	4195.31
427.8	4233.31
428.062	4157.31
428.325	4198.31
428.587	4273.31
428.849	4263.31
429.112	4317.31
429.374	4267.31
429.636	4233.31
429.899	4335.31
430.161	4255.31
430.423	4322.31
430.686	4495.31
430.948	4455.31
431.21	4260.31
431.472	4255.31
431.735	4385.31
431.997	4430.31
432.259	4394.31
432.521	4277.31
432.783	4432.31
433.046	4450.31
433.308	4349.31
433.57	4378.31
433.832	4620.31
434.094	4430.31
434.356	4255.31
434.618	4383.31
434.881	4469.31
435.143	4598.31
435.405	4565.31
435.667	4520.31
435.929	4550.31
436.191	4570.31
436.453	4446.31
436.715	4557.31
436.977	4757.31
437.239	4796.31
437.501	4660.31
437.763	4644.31
438.025	4716.31
438.287	4681.31
438.549	4633.31
438.811	4624.31
439.073	4676.31
439.335	4657.31
439.597	4600.31
439.859	4505.31
440.121	4580.31
440.383	4664.31
440.645	4670.31
440.907	4707.31
441.168	4679.31
441.43	4687.31
441.692	4723.31
441.954	4853.31
442.216	4846.31
442.478	4734.31
442.74	4635.31
443.001	4780.31
443.263	4905.31
443.525	4763.31
443.787	4665.31
444.048	4629.31
444.31	4684.31
444.572	4755.31
444.834	4735.31
445.095	4746.31
445.357	4905.31
445.619	4691.31
445.881	4612.31
446.142	4754.31
446.404	4736.31
446.666	4752.31
446.927	4738.31
447.189	4881.31
447.451	4942.31
447.712	4745.31
447.974	4587.31
448.235	4626.31
448.497	4731.31
448.759	4676.31
449.02	4653.31
449.282	4612.31
449.543	4747.31
449.805	4775.31
450.066	4522.31
450.328	4684.31
450.59	4862.31
450.851	4717.31
451.113	4568.31
451.374	4530.31
451.636	4792.31
451.897	4878.31
452.158	4751.31
452.42	4765.31
452.681	4844.31
452.943	4650.31
453.204	4639.31
453.466	4653.31
453.727	4674.31
453.988	4713.31
454.25	4643.31
454.511	4719.31
454.773	4731.31
455.034	4911.31
455.295	4591.31
455.557	4748.31
455.818	4777.31
456.079	4764.31
456.341	4876.31
456.602	4912.31
456.863	4978.31
457.124	4813.31
457.386	4674.31
457.647	4690.31
457.908	4774.31
458.169	4936.31
458.431	4798.31
458.692	4840.31
458.953	4871.31
459.214	4808.31
459.476	4981.31
459.737	5145.31
459.998	5154.31
460.259	4981.31
460.52	4957.31
460.781	5099.31
461.043	5301.31
461.304	5134.31
461.565	4923.31
461.826	5023.31
462.087	5255.31
462.348	5357.31
462.609	5315.31
462.87	5250.31
463.131	5182.31
463.392	5445.31
463.653	5464.31
463.914	5439.31
464.175	5386.31
464.436	5429.31
464.697	5521.31
464.958	5431.31
465.219	5424.31
465.48	5527.31
465.741	5564.31
466.002	5460.31
466.263	5656.31
466.524	5683.31
466.785	5537.31
467.046	5684.31
467.307	5827.31
467.568	5866.31
467.829	5859.31
468.089	5860.31
468.35	5914.31
468.611	5809.31
468.872	5791.31
469.133	6038.31
469.394	6204.31
469.655	6293.31
469.915	6153.31
470.176	6044.31
470.437	6115.31
470.698	6258.31
470.958	6290.31
471.219	6267.31
471.48	6438.31
471.741	6577.31
472.001	6560.31
472.262	6555.31
472.523	6750.31
472.784	6880.31
473.044	6803.31
473.305	6863.31
473.566	6862.31
473.826	6971.31
474.087	6931.31
474.348	7016.31
474.608	7228.31
474.869	7219.31
475.129	7130.31
475.39	7212.31
475.651	7394.31
475.911	7534.31
476.172	7396.31
476.432	7561.31
476.693	7788.31
476.953	7683.31
477.214	7682.31
477.475	7718.31
477.735	7780.31
477.996	7970.31
478.256	7825.31
478.517	7926.31
478.777	8124.31
479.038	8266.31
479.298	8294.31
479.558	8324.31
479.819	8479.31
480.079	8500.31
480.34	8562.31
480.6	8538.31
480.861	8646.31
481.121	8637.31
481.381	8651.31
481.642	8760.31
481.902	8819.31
482.162	8778.31
482.423	8777.31
482.683	8940.31
482.943	9057.31
483.204	9000.31
483.464	9021.31
483.724	9072.31
483.985	9191.31
484.245	9289.31
484.505	9269.31
484.765	9362.31
485.026	9467.31
485.286	9535.31
485.546	9598.31
485.806	9678.31
486.067	9628.31
486.327	9533.31
486.587	9560.31
486.847	9637.31
487.107	9762.31
487.368	9844.31
487.628	9799.31
487.888	9877.31
488.148	9954.31
488.408	9857.31
488.668	9921.31
488.928	9988.31
489.188	10016.31
489.449	10113.31
489.709	10043.31
489.969	10036.31
490.229	10209.31
490.489	10195.31
490.749	10077.31
491.009	9984.31
491.269	10156.31
491.529	10168.31
491.789	10081.31
492.049	10237.31
492.309	10341.31
492.569	10222.31
492.829	10245.31
493.089	10253.31
493.349	10431.31
493.609	10358.31
493.869	10285.31
494.129	10355.31
494.389	10401.31
494.648	10318.31
494.908	10315.31
495.168	10396.31
495.428	10497.31
495.688	10431.31
495.948	10256.31
496.208	10264.31
496.467	10384.31
496.727	10445.31
496.987	10442.31
497.247	10499.31
497.507	10568.31
497.767	10566.31
498.026	10380.31
498.286	10548.31
498.546	10676.31
498.806	10548.31
499.065	10617.31
499.325	10546.31
499.585	10536.31
499.845	10530.31
500.104	10564.31
500.364	10629.31
500.624	10629.31
500.883	10547.31
501.143	10505.31
501.403	10585.31
501.662	10676.31
501.922	10588.31
502.182	10414.31
502.441	10476.31
502.701	10567.31
502.96	10633.31
503.22	10588.31
503.48	10514.31
503.739	10551.31
503.999	10544.31
504.258	10512.31
504.518	10571.31
504.777	10607.31
505.037	10590.31
505.296	10534.31
505.556	10454.31
505.815	10618.31
506.075	10709.31
506.334	10683.31
506.594	10515.31
506.853	10579.31
507.113	10564.31
507.372	10408.31
507.632	10526.31
507.891	10600.31
508.151	10649.31
508.41	10545.31
508.669	10516.31
508.929	10559.31
509.188	10572.31
509.447	10568.31
509.707	10534.31
509.966	10637.31
510.226	10606.31
510.485	10596.31
510.744	10698.31
511.004	10668.31
511.263	10517.31
511.522	10476.31
511.781	10489.31
512.041	10610.31
512.3	10641.31
512.559	10605.31
512.818	10723.31
513.078	10759.31
513.337	10636.31
513.596	10506.31
513.855	10514.31
514.115	10636.31
514.374	10634.31
514.633	10555.31
514.892	10543.31
515.151	10728.31
515.41	10826.31
515.67	10750.31
515.929	10696.31
516.188	10770.31
516.447	10650.31
516.706	10574.31
516.965	10688.31
517.224	10761.31
517.483	10741.31
517.743	10597.31
518.002	10704.31
518.261	10829.31
518.52	10746.31
518.779	10677.31
519.038	10708.31
519.297	10800.31
519.556	10764.31
519.815	10622.31
520.074	10688.31
520.333	10820.31
520.592	10787.31
520.851	10623.31
521.11	10742.31
521.369	10870.31
521.628	10735.31
521.887	10612.31
522.145	10710.31
522.404	10799.31
522.663	10793.31
522.922	10681.31
523.181	10704.31
523.44	10809.31
523.699	10795.31
523.958	10607.31
524.217	10617.31
524.475	10685.31
524.734	10714.31
524.993	10685.31
525.252	10692.31
525.511	10797.31
525.769	10765.31
526.028	10642.31
526.287	10728.31
526.546	10732.31
526.805	10723.31
527.063	10619.31
527.322	10612.31
527.581	10692.31
527.839	10666.31
528.098	10671.31
528.357	10629.31
528.616	10697.31
528.874	10665.31
529.133	10607.31
529.392	10730.31
529.65	10690.31
529.909	10639.31
530.168	10523.31
530.426	10573.31
530.685	10723.31
530.943	10678.31
531.202	10579.31
531.461	10595.31
531.719	10798.31
531.978	10691.31
532.236	10551.31
532.495	10585.31
532.753	10677.31
533.012	10734.31
533.271	10609.31
533.529	10533.31
533.788	10652.31
534.046	10593.31
534.305	10531.31
534.563	10829.31
534.822	10878.31
535.08	10797.31
535.338	10637.31
535.597	10633.31
535.855	10736.31
536.114	10670.31
536.372	10596.31
536.631	10707.31
536.889	10801.31
537.147	10778.31
537.406	10542.31
537.664	10678.31
537.923	10791.31
538.181	10857.31
538.439	10687.31
538.698	10777.31
538.956	10803.31
539.214	10805.31
539.473	10755.31
539.731	10799.31
539.989	10937.31
540.248	10875.31
540.506	10777.31
540.764	10855.31
541.022	10928.31
541.281	10980.31
541.539	10960.31
541.797	10940.31
542.055	11045.31
542.314	11033.31
542.572	11084.31
542.83	11052.31
543.088	11127.31
543.346	11070.31
543.604	10984.31
543.863	11090.31
544.121	11260.31
544.379	11230.31
544.637	11132.31
544.895	11266.31
545.153	11339.31
545.411	11236.31
545.67	11138.31
545.928	11265.31
546.186	11422.31
546.444	11490.31
546.702	11397.31
546.96	11425.31
547.218	11493.31
547.476	11508.31
547.734	11488.31
547.992	11634.31
548.25	11800.31
548.508	11717.31
548.766	11660.31
549.024	11653.31
549.282	11776.31
549.54	11868.31
549.798	11835.31
550.056	11892.31
550.314	11996.31
550.572	11961.31
550.83	11908.31
551.088	11990.31
551.346	12071.31
551.603	12138.31
551.861	12134.31
552.119	12206.31
552.377	12204.31
552.635	12135.31
552.893	12159.31
553.151	12227.31
553.409	12335.31
553.666	12389.31
553.924	12377.31
554.182	12340.31
554.44	12442.31
554.698	12593.31
554.955	12507.31
555.213	12532.31
555.471	12662.31
555.729	12644.31
555.986	12472.31
556.244	12562.31
556.502	12787.31
556.76	12702.31
557.017	12743.31
557.275	12786.31
557.533	12910.31
557.79	12892.31
558.048	12739.31
558.306	12816.31
558.563	12921.31
558.821	12867.31
559.079	12878.31
559.336	12951.31
559.594	12982.31
559.852	12971.31
560.109	12977.31
560.367	13091.31
560.624	13175.31
560.882	13079.31
561.14	13069.31
561.397	13216.31
561.655	13117.31
561.912	13149.31
562.17	13057.31
562.427	13118.31
562.685	13236.31
562.942	13208.31
563.2	13076.31
563.457	13104.31
563.715	13170.31
563.972	13225.31
564.23	13052.31
564.487	13040.31
564.745	13083.31
565.002	13204.31
565.26	13127.31
565.517	13081.31
565.774	13162.31
566.032	13195.31
566.289	13114.31
566.547	13107.31
566.804	13188.31
567.061	13133.31
567.319	13073.31
567.576	13179.31
567.833	13252.31
568.091	13261.31
568.348	13106.31
568.605	13155.31
568.863	13175.31
569.12	13135.31
569.377	13156.31
569.635	13041.31
569.892	12996.31
570.149	12995.31
570.406	12860.31
570.664	12876.31
570.921	13001.31
571.178	12902.31
571.435	12869.31
571.693	12877.31
571.95	12900.31
572.207	12855.31
572.464	12755.31
572.721	12816.31
572.979	12918.31
573.236	12813.31
573.493	12663.31
573.75	12673.31
574.007	12717.31
574.264	12528.31
574.521	12427.31
574.779	12446.31
575.036	12552.31
575.293	12437.31
575.55	12342.31
575.807	12322.31
576.064	12355.31
576.321	12318.31
576.578	12132.31
576.835	12079.31
577.092	12230.31
577.349	12133.31
577.606	11870.31
577.863	11861.31
578.12	11998.31
578.377	11939.31
578.634	11726.31
578.891	11745.31
579.148	11759.31
579.405	11689.31
579.662	11568.31
579.919	11562.31
580.176	11554.31
580.433	11497.31
580.69	11377.31
580.947	11359.31
581.204	11368.31
581.461	11257.31
581.717	11098.31
581.974	11192.31
582.231	11217.31
582.488	11050.31
582.745	10763.31
583.002	10772.31
583.259	10958.31
583.515	10875.31
583.772	10615.31
584.029	10639.31
584.286	10730.31
584.543	10487.31
584.799	10402.31
585.056	10493.31
585.313	10545.31
585.57	10428.31
585.826	10243.31
586.083	10330.31
586.34	10403.31
586.597	10098.31
586.853	9923.31
587.11	9948.31
587.367	10118.31
587.623	10042.31
587.88	9900.31
588.137	9781.31
588.393	9887.31
588.65	9749.31
588.907	9635.31
589.163	9676.31
589.42	9674.31
589.677	9540.31
589.933	9431.31
590.19	9546.31
590.446	9640.31
590.703	9545.31
590.96	9335.31
591.216	9328.31
591.473	9340.31
591.729	9286.31
591.986	9233.31
592.242	9264.31
592.499	9380.31
592.755	9186.31
593.012	9042.31
593.268	9113.31
593.525	9096.31
593.781	9134.31
594.038	9028.31
594.294	9017.31
594.551	9071.31
594.807	9017.31
595.064	8979.31
595.32	8895.31
595.576	8921.31
595.833	8930.31
596.089	8840.31
596.346	8956.31
596.602	8946.31
596.858	8944.31
597.115	8856.31
597.371	8899.31
597.628	8846.31
597.884	8781.31
598.14	8681.31
598.397	8817.31
598.653	8908.31
598.909	8751.31
599.166	8672.31
599.422	8734.31
599.678	8771.31
599.934	8795.31
600.191	8620.31
600.447	8627.31
600.703	8688.31
600.959	8634.31
601.216	8420.31
601.472	8490.31
601.728	8566.31
601.984	8467.31
602.241	8450.31
602.497	8532.31
602.753	8682.31
603.009	8568.31
603.265	8452.31
603.521	8539.31
603.778	8667.31
604.034	8558.31
604.29	8428.31
604.546	8469.31
604.802	8615.31
605.058	8534.31
605.314	8454.31
605.571	8476.31
605.827	8469.31
606.083	8452.31
606.339	8368.31
606.595	8495.31
606.851	8542.31
607.107	8560.31
607.363	8399.31
607.619	8398.31
607.875	8587.31
608.131	8557.31
608.387	8273.31
608.643	8365.31
608.899	8432.31
609.155	8399.31
609.411	8360.31
609.667	8353.31
609.923	8371.31
610.179	8383.31
610.435	8211.31
610.691	8252.31
610.947	8333.31
611.203	8223.31
611.459	8177.31
611.714	8262.31
611.97	8404.31
612.226	8343.31
612.482	8104.31
612.738	8199.31
612.994	8388.31
613.25	8249.31
613.505	8034.31
613.761	8037.31
614.017	8132.31
614.273	8150.31
614.529	8047.31
614.785	7950.31
615.04	8094.31
615.296	8081.31
615.552	8053.31
615.808	8072.31
616.063	8106.31
616.319	8099.31
616.575	7974.31
616.831	8073.31
617.086	8218.31
617.342	8103.31
617.598	7977.31
617.854	8001.31
618.109	8029.31
618.365	7855.31
618.621	7752.31
618.876	7846.31
619.132	7905.31
619.388	7863.31
619.643	7672.31
619.899	7760.31
620.155	7852.31
620.41	7844.31
620.666	7706.31
620.921	7679.31
621.177	7789.31
621.433	7824.31
621.688	7758.31
621.944	7660.31
622.199	7655.31
622.455	7665.31
622.71	7549.31
622.966	7546.31
623.221	7550.31
623.477	7566.31
623.732	7547.31
623.988	7386.31
624.243	7536.31
624.499	7505.31
624.754	7329.31
625.01	7411.31
625.265	7495.31
625.521	7505.31
625.776	7319.31
626.032	7355.31
626.287	7409.31
626.543	7294.31
626.798	7202.31
627.053	7264.31
627.309	7304.31
627.564	7200.31
627.82	7189.31
628.075	7298.31
628.33	7181.31
628.586	7062.31
628.841	6977.31
629.096	7067.31
629.352	7103.31
629.607	7045.31
629.862	6993.31
630.118	7037.31
630.373	6975.31
630.628	7032.31
630.884	6913.31
631.139	6958.31
631.394	7000.31
631.649	6875.31
631.905	6795.31
632.16	6874.31
632.415	7058.31
632.67	6890.31
632.926	6655.31
633.181	6600.31
633.436	6766.31
633.691	6709.31
633.946	6531.31
634.202	6584.31
634.457	6665.31
634.712	6604.31
634.967	6506.31
635.222	6464.31
635.477	6538.31
635.733	6525.31
635.988	6427.31
636.243	6422.31
636.498	6543.31
636.753	6498.31
637.008	6311.31
637.263	6366.31
637.518	6444.31
637.773	6382.31
638.028	6308.31
638.283	6344.31
638.539	6424.31
638.794	6299.31
639.049	6143.31
639.304	6171.31
639.559	6206.31
639.814	6205.31
640.069	6137.31
640.324	6104.31
640.579	6239.31
640.834	6157.31
641.089	6010.31
641.344	6095.31
641.598	6276.31
641.853	6109.31
642.108	5909.31
642.363	5860.31
642.618	6020.31
642.873	5925.31
643.128	5779.31
643.383	5829.31
643.638	5894.31
643.893	5943.31
644.148	5835.31
644.402	5759.31
644.657	5842.31
644.912	5774.31
645.167	5711.31
645.422	5770.31
645.677	5779.31
645.931	5791.31
646.186	5777.31
646.441	5635.31
646.696	5579.31
646.951	5632.31
647.205	5602.31
647.46	5595.31
647.715	5656.31
647.97	5777.31
648.224	5806.31
648.479	5658.31
648.734	5756.31
648.989	5728.31
649.243	5605.31
649.498	5540.31
649.753	5579.31
650.007	5635.31
650.262	5511.31
650.517	5480.31
650.771	5495.31
651.026	5446.31
651.281	5321.31
651.535	5460.31
651.79	5486.31
652.045	5483.31
652.299	5339.31
652.554	5339.31
652.809	5423.31
653.063	5543.31
653.318	5447.31
653.572	5267.31
653.827	5411.31
654.081	5325.31
654.336	5175.31
654.591	5203.31
654.845	5325.31
655.1	5278.31
655.354	5182.31
655.609	5267.31
655.863	5383.31
656.118	5322.31
656.372	5160.31
656.627	5181.31
656.881	5304.31
657.136	5235.31
657.39	5163.31
657.645	5220.31
657.899	5349.31
658.153	5207.31
658.408	5098.31
658.662	5150.31
658.917	5241.31
659.171	5165.31
659.426	5060.31
659.68	5041.31
659.934	5188.31
660.189	5213.31
660.443	5044.31
660.697	5200.31
660.952	5282.31
661.206	5175.31
661.46	5014.31
661.715	5090.31
661.969	5191.31
662.223	5156.31
662.478	5057.31
662.732	5106.31
662.986	5180.31
663.241	5211.31
663.495	5107.31
663.749	5133.31
664.003	5269.31
664.258	5166.31
664.512	5117.31
664.766	5141.31
665.02	5189.31
665.275	5166.31
665.529	4999.31
665.783	5052.31
666.037	5155.31
666.291	5129.31
666.546	5025.31
666.8	5079.31
667.054	5087.31
667.308	5150.31
667.562	4986.31
667.816	5073.31
668.071	5211.31
668.325	5127.31
668.579	5151.31
668.833	5165.31
669.087	5279.31
669.341	5176.31
669.595	5107.31
669.849	5213.31
670.103	5261.31
670.357	5208.31
670.612	5139.31
670.866	5101.31
671.12	5224.31
671.374	5231.31
671.628	5165.31
671.882	5153.31
672.136	5218.31
672.39	5249.31
672.644	5072.31
672.898	5259.31
673.152	5427.31
673.406	5283.31
673.66	5195.31
673.914	5247.31
674.168	5306.31
674.422	5283.31
674.675	5200.31
674.929	5217.31
675.183	5386.31
675.437	5345.31
675.691	5269.31
675.945	5383.31
676.199	5518.31
676.453	5362.31
676.707	5224.31
676.961	5279.31
677.214	5335.31
677.468	5379.31
677.722	5390.31
677.976	5405.31
678.23	5505.31
678.484	5457.31
678.737	5339.31
678.991	5423.31
679.245	5506.31
679.499	5457.31
679.753	5361.31
680.006	5512.31
680.26	5576.31
680.514	5580.31
680.768	5433.31
681.021	5499.31
681.275	5583.31
681.529	5565.31
681.783	5494.31
682.036	5546.31
682.29	5493.31
682.544	5510.31
682.797	5432.31
683.051	5468.31
683.305	5601.31
683.559	5604.31
683.812	5582.31
684.066	5634.31
684.32	5728.31
684.573	5719.31
684.827	5704.31
685.08	5656.31
685.334	5763.31
685.588	5681.31
685.841	5545.31
686.095	5744.31
686.348	5751.31
686.602	5732.31
686.856	5689.31
687.109	5696.31
687.363	5752.31
687.616	5682.31
687.87	5580.31
688.123	5683.31
688.377	5785.31
688.63	5830.31
688.884	5790.31
689.137	5838.31
689.391	5870.31
689.644	5760.31
689.898	5682.31
690.151	5712.31
690.405	5831.31
690.658	5749.31
690.912	5675.31
691.165	5710.31
691.419	5813.31
691.672	5841.31
691.926	5732.31
692.179	5767.31
692.432	5850.31
692.686	5861.31
692.939	5712.31
693.193	5780.31
693.446	5963.31
693.699	5975.31
693.953	5909.31
694.206	5901.31
694.459	5982.31
694.713	5981.31
694.966	5825.31
695.219	5836.31
695.473	5946.31
695.726	5818.31
695.979	5752.31
696.233	5872.31
696.486	5943.31
696.739	5887.31
696.992	5776.31
697.246	5898.31
697.499	6017.31
697.752	5811.31
698.006	5813.31
698.259	5890.31
698.512	5879.31
698.765	5842.31
699.018	5773.31
699.272	5853.31
699.525	5891.31
699.778	5749.31
700.031	5730.31
700.284	5784.31
700.538	5878.31
700.791	5852.31
701.044	5806.31
701.297	5868.31
701.55	5859.31
701.803	5790.31
702.056	5698.31
702.31	5769.31
702.563	5870.31
702.816	5797.31
703.069	5642.31
703.322	5695.31
703.575	5835.31
703.828	5879.31
704.081	5780.31
704.334	5728.31
704.587	5797.31
704.84	5766.31
705.093	5727.31
705.346	5856.31
705.599	5837.31
705.853	5850.31
706.106	5887.31
706.359	6092.31
706.612	5828.31
706.865	5831.31
707.118	5709.31
707.37	5756.31
707.623	5847.31
707.876	5790.31
708.129	5762.31
708.382	5802.31
708.635	5900.31
708.888	5745.31
709.141	5652.31
709.394	5749.31
709.647	5835.31
709.9	5714.31
710.153	5573.31
710.406	5702.31
710.658	5778.31
710.911	5683.31
711.164	5590.31
711.417	5632.31
711.67	5643.31
711.923	5692.31
712.176	5538.31
712.428	5568.31
712.681	5635.31
712.934	5674.31
713.187	5581.31
713.44	5511.31
713.692	5634.31
713.945	5569.31
714.198	5457.31
714.451	5433.31
714.704	5549.31
714.956	5633.31
715.209	5679.31
715.462	5596.31
715.715	5610.31
715.967	5578.31
716.22	5414.31
716.473	5419.31
716.725	5565.31
716.978	5545.31
717.231	5484.31
717.484	5497.31
717.736	5432.31
717.989	5383.31
718.242	5320.31
718.494	5386.31
718.747	5488.31
718.999	5416.31
719.252	5408.31
719.505	5408.31
719.757	5392.31
720.01	5330.31
720.263	5299.31
720.515	5284.31
720.768	5343.31
721.02	5325.31
721.273	5198.31
721.525	5164.31
721.778	5256.31
722.031	5328.31
722.283	5156.31
722.536	5179.31
722.788	5254.31
723.041	5145.31
723.293	5044.31
723.546	5006.31
723.798	5154.31
724.051	5259.31
724.303	5182.31
724.556	5206.31
724.808	5275.31
725.061	5166.31
725.313	5038.31
725.566	5041.31
725.818	5049.31
726.071	5003.31
726.323	4852.31
726.575	4928.31
726.828	5123.31
727.08	5153.31
727.333	4965.31
727.585	4932.31
727.837	5003.31
728.09	4965.31
728.342	4835.31
728.595	4940.31
728.847	5124.31
729.099	4859.31
729.352	4813.31
729.604	4821.31
729.856	4897.31
730.109	4899.31
730.361	4803.31
730.613	4881.31
730.866	4963.31
731.118	4862.31
731.37	4754.31
731.622	4744.31
731.875	4795.31
732.127	4852.31
732.379	4837.31
732.631	4887.31
732.884	4833.31
733.136	4772.31
733.388	4643.31
733.64	4698.31
733.893	4850.31
734.145	4702.31
734.397	4567.31
734.649	4569.31
734.901	4657.31
735.154	4568.31
735.406	4498.31
735.658	4574.31
735.91	4676.31
736.162	4637.31
736.414	4527.31
736.667	4600.31
736.919	4601.31
737.171	4456.31
737.423	4414.31
737.675	4435.31
737.927	4535.31
738.179	4502.31
738.431	4451.31
738.684	4397.31
738.936	4458.31
739.188	4555.31
739.44	4327.31
739.692	4328.31
739.944	4358.31
740.196	4423.31
740.448	4343.31
740.7	4303.31
740.952	4343.31
741.204	4364.31
741.456	4250.31
741.708	4285.31
741.96	4290.31
742.212	4356.31
742.464	4322.31
742.716	4199.31
742.968	4276.31
743.22	4223.31
743.472	4133.31
743.724	4199.31
743.976	4339.31
744.228	4372.31
744.48	4137.31
744.732	4161.31
744.983	4320.31
745.235	4248.31
745.487	4195.31
745.739	4248.31
745.991	4224.31
746.243	4255.31
746.495	4122.31
746.747	4132.31
746.999	4242.31
747.25	4200.31
747.502	4169.31
747.754	4227.31
748.006	4129.31
748.258	4231.31
748.51	4274.31
748.761	4092.31
749.013	4089.31
749.265	4188.31
749.517	4209.31
749.768	4216.31
750.02	4238.31
750.272	4155.31
750.524	3965.31
750.776	3943.31
751.027	4162.31
751.279	4179.31
751.531	3956.31
751.782	4017.31
752.034	4138.31
752.286	4035.31
752.538	3893.31
752.789	4008.31
753.041	4077.31
753.293	4047.31
753.544	3949.31
753.796	3985.31
754.048	4055.31
754.299	4042.31
754.551	4002.31
754.803	3919.31
755.054	3982.31
755.306	4034.31
755.558	3876.31
755.809	3869.31
756.061	4039.31
756.312	3918.31
756.564	3857.31
756.816	3872.31
757.067	3841.31
757.319	3829.31
757.57	3829.31
757.822	3843.31
758.073	3936.31
758.325	3915.31
758.577	3769.31
758.828	3806.31
759.08	3970.31
759.331	3932.31
759.583	3779.31
759.834	3839.31
760.086	3790.31
760.337	3810.31
760.589	3725.31
760.84	3693.31
761.092	3799.31
761.343	3752.31
761.595	3594.31
761.846	3729.31
762.097	3740.31
762.349	3702.31
762.6	3565.31
762.852	3680.31
763.103	3784.31
763.355	3644.31
763.606	3570.31
763.857	3703.31
764.109	3773.31
764.36	3669.31
764.612	3586.31
764.863	3688.31
765.114	3704.31
765.366	3559.31
765.617	3481.31
765.868	3521.31
766.12	3638.31
766.371	3620.31
766.622	3451.31
766.874	3543.31
767.125	3656.31
767.376	3519.31
767.628	3448.31
767.879	3500.31
768.13	3585.31
768.381	3587.31
768.633	3516.31
768.884	3527.31
769.135	3620.31
769.386	3550.31
769.638	3465.31
769.889	3468.31
770.14	3492.31
770.391	3431.31
770.643	3397.31
770.894	3349.31
771.145	3457.31
771.396	3407.31
771.647	3287.31
771.899	3407.31
772.15	3492.31
772.401	3423.31
772.652	3296.31
772.903	3307.31
773.154	3666.31
773.406	3883.31
773.657	3368.31
773.908	3313.31
774.159	3354.31
774.41	3392.31
774.661	3276.31
774.912	3320.31
775.163	3489.31
775.414	3445.31
775.666	3208.31
775.917	3210.31
776.168	3245.31
776.419	3212.31
776.67	3145.31
776.921	3190.31
777.172	3249.31
777.423	3252.31
777.674	3286.31
777.925	3264.31
778.176	3176.31
778.427	3142.31
778.678	3096.31
778.929	3172.31
779.18	3256.31
779.431	3150.31
779.682	3116.31
779.933	3145.31
780.184	3203.31
780.435	3147.31
780.686	3089.31
780.937	3165.31
781.188	3223.31
781.439	3269.31
781.69	3189.31
781.941	3136.31
782.191	3144.31
782.442	3094.31
782.693	2988.31
782.944	2992.31
783.195	3058.31
783.446	3090.31
783.697	3076.31
783.948	2986.31
784.199	3015.31
784.449	2972.31
784.7	2969.31
784.951	3029.31
785.202	3164.31
785.453	3139.31
785.704	2945.31
785.954	2891.31
786.205	2971.31
786.456	2913.31
786.707	2819.31
786.958	2858.31
787.208	2994.31
787.459	2937.31
787.71	2901.31
787.961	2907.31
788.211	2935.31
788.462	2942.31
788.713	2892.31
788.964	2839.31
789.214	2942.31
789.465	2940.31
789.716	2876.31
789.967	2873.31
790.217	2884.31
790.468	2799.31
790.719	2735.31
790.969	2800.31
791.22	2824.31
791.471	2909.31
791.721	2955.31
791.972	2824.31
792.223	2872.31
792.473	2790.31
792.724	2783.31
792.975	2767.31
793.225	2839.31
793.476	2836.31
793.726	2733.31
793.977	2792.31
794.228	2924.31
794.478	2785.31
794.729	2682.31
794.979	2788.31
795.23	2827.31
795.481	2752.31
795.731	2665.31
795.982	2710.31
796.232	2714.31
796.483	2686.31
796.733	2599.31
796.984	2624.31
797.234	2707.31
797.485	2751.31
797.735	2579.31
797.986	2615.31
798.236	2718.31
798.487	2625.31
798.737	2646.31
798.988	2770.31
799.238	2777.31
799.489	2623.31
799.739	2511.31
799.99	2600.31
800.24	2709.31
800.491	2760.31
800.741	2623.31
800.991	2538.31
801.242	2600.31
801.492	2624.31
801.743	2551.31
801.993	2775.31
802.244	2953.31
802.494	2572.31
802.744	2561.31
802.995	2618.31
803.245	2597.31
803.495	2580.31
803.746	2530.31
803.996	2564.31
804.246	2562.31
804.497	2561.31
804.747	2462.31
804.997	2525.31
805.248	2520.31
805.498	2463.31
805.748	2486.31
805.999	2393.31
806.249	2480.31
806.499	2457.31
806.75	2371.31
807	2412.31
807.25	2492.31
807.5	2426.31
807.751	2423.31
808.001	2494.31
808.251	2495.31
808.501	2577.31
808.752	2536.31
809.002	2446.31
809.252	2435.31
809.502	2383.31
809.752	2341.31
810.003	2316.31
810.253	2399.31
810.503	2434.31
810.753	2477.31
811.003	2461.31
811.254	2451.31
811.504	2417.31
811.754	2397.31
812.004	2409.31
812.254	2628.31
812.504	2431.31
812.754	2328.31
813.005	2391.31
813.255	2455.31
813.505	2376.31
813.755	2279.31
814.005	2347.31
814.255	2375.31
814.505	2356.31
814.755	2208.31
815.005	2238.31
815.255	2382.31
815.505	2350.31
815.756	2372.31
816.006	2321.31
816.256	2283.31
816.506	2232.31
816.756	2191.31
817.006	2197.31
817.256	2279.31
817.506	2283.31
817.756	2247.31
818.006	2262.31
818.256	2297.31
818.506	2256.31
818.756	2136.31
819.006	2181.31
819.256	2260.31
819.506	2209.31
819.756	2140.31
820.006	2235.31
820.255	2298.31
820.505	2293.31
820.755	2156.31
821.005	2179.31
821.255	2273.31
821.505	2191.31
821.755	2137.31
822.005	2210.31
822.255	2287.31
822.505	2192.31
822.755	2207.31
823.004	2075.31
823.254	2109.31
823.504	2226.31
823.754	2221.31
824.004	2113.31
824.254	2184.31
824.504	2175.31
824.753	2219.31
825.003	2196.31
825.253	2241.31
825.503	2129.31
825.753	2099.31
826.002	2165.31
826.252	2375.31
826.502	2165.31
826.752	2083.31
827.002	2081.31
827.251	2160.31
827.501	2108.31
827.751	2031.31
828.001	2035.31
828.25	2110.31
828.5	1988.31
828.75	1982.31
829	2092.31
829.249	2201.31
829.499	2064.31
829.749	2048.31
829.998	2141.31
830.248	2125.31
830.498	2004.31
830.748	2035.31
830.997	2082.31
831.247	2157.31
831.497	2123.31
831.746	2060.31
831.996	2138.31
832.246	2220.31
832.495	2195.31
832.745	1964.31
832.994	1986.31
833.244	2152.31
833.494	2018.31
833.743	1915.31
833.993	1989.31
834.243	2058.31
834.492	2013.31
834.742	2007.31
834.991	1996.31
835.241	2153.31
835.49	2008.31
835.74	1868.31
835.99	1954.31
836.239	2056.31
836.489	2097.31
836.738	1999.31
836.988	1848.31
837.237	1977.31
837.487	2071.31
837.736	1950.31
837.986	1914.31
838.235	1976.31
838.485	1939.31
838.734	1919.31
838.984	1970.31
839.233	1949.31
839.483	1879.31
839.732	1827.31
839.982	1948.31
840.231	1996.31
840.481	1952.31
840.73	1825.31
840.979	1895.31
841.229	1906.31
841.478	1899.31
841.728	1766.31
841.977	1745.31
842.227	1836.31
842.476	1805.31
842.725	1764.31
842.975	1815.31
843.224	1889.31
843.474	1940.31
843.723	1818.31
843.972	1797.31
844.222	1855.31
844.471	1905.31
844.72	1791.31
844.97	1777.31
845.219	1869.31
845.468	1863.31
845.718	1792.31
845.967	1823.31
846.216	1840.31
846.466	1900.31
846.715	1787.31
846.964	1805.31
847.214	1800.31
847.463	1742.31
847.712	1761.31
847.961	1745.31
848.211	1820.31
848.46	1800.31
848.709	1731.31
848.958	1688.31
849.208	1755.31
849.457	1732.31
849.706	1760.31
849.955	1724.31
850.205	1696.31
850.454	1833.31
850.703	1855.31
850.952	1799.31
851.201	1848.31
851.451	1752.31
851.7	1768.31
851.949	1640.31
852.198	1712.31
852.447	1700.31
852.696	1589.31
852.946	1639.31
853.195	1770.31
853.444	1748.31
853.693	1556.31
853.942	1554.31
854.191	1686.31
854.44	1709.31
854.689	1635.31
854.939	1584.31
855.188	1573.31
855.437	1592.31
855.686	1567.31
855.935	1617.31
856.184	1675.31
856.433	1728.31
856.682	1624.31
856.931	1581.31
857.18	1613.31
857.429	1542.31
857.678	1509.31
857.927	1548.31
858.176	1591.31
858.425	1537.31
858.674	1422.31
858.924	1540.31
859.173	1550.31
859.422	1556.31
859.671	1458.31
859.92	1524.31
860.169	1568.31
860.417	1591.31
860.666	1498.31
860.915	1469.31
861.164	1522.31
861.413	1467.31
861.662	1415.31
861.911	1463.31
862.16	1587.31
862.409	1545.31
862.658	1361.31
862.907	1426.31
863.156	1512.31
863.405	1499.31
863.654	1415.31
863.903	1370.31
864.151	1446.31
864.4	1487.31
864.649	1439.31
864.898	1469.31
865.147	1504.31
865.396	1531.31
865.645	1402.31
865.894	1472.31
866.142	1581.31
866.391	1451.31
866.64	1340.31
866.889	1440.31
867.138	1581.31
867.387	1481.31
867.635	1389.31
867.884	1426.31
868.133	1505.31
868.382	1419.31
868.631	1272.31
868.879	1300.31
869.128	1419.31
869.377	1396.31
869.626	1348.31
869.874	1347.31
870.123	1465.31
870.372	1412.31
870.621	1291.31
870.869	1310.31
871.118	1395.31
871.367	1393.31
871.616	1275.31
871.864	1369.31
872.113	1404.31
872.362	1391.31
872.61	1325.31
872.859	1388.31
873.108	1438.31
873.357	1341.31
873.605	1266.31
873.854	1236.31
874.103	1257.31
874.351	1255.31
874.6	1223.31
874.848	1280.31
875.097	1340.31
875.346	1339.31
875.594	1227.31
875.843	1312.31
876.092	1462.31
876.34	1336.31
876.589	1231.31
876.837	1141.31
877.086	1245.31
877.335	1315.31
877.583	1259.31
877.832	1314.31
878.08	1408.31
878.329	1269.31
878.578	1192.31
878.826	1194.31
879.075	1278.31
879.323	1322.31
879.572	1245.31
879.82	1349.31
880.069	1276.31
880.317	1284.31
880.566	1141.31
880.814	1227.31
881.063	1340.31
881.311	1262.31
881.56	1265.31
881.808	1169.31
882.057	1231.31
882.305	1236.31
882.554	1242.31
882.802	1144.31
883.051	1179.31
883.299	1180.31
883.548	1149.31
883.796	1247.31
884.045	1242.31
884.293	1141.31
884.541	1023.31
884.79	1052.31
885.038	1165.31
885.287	1144.31
885.535	1151.31
885.783	1173.31
886.032	1124.31
886.28	1088.31
886.529	1046.31
886.777	1105.31
887.025	1247.31
887.274	1111.31
887.522	1069.31
887.77	1083.31
888.019	1100.31
888.267	1062.31
888.516	977.31
888.764	1028.31
889.012	1107.31
889.261	1083.31
889.509	994.31
889.757	1026.31
890.005	1065.31
890.254	998.31
890.502	1035.31
890.75	1216.31
890.999	1213.31
891.247	1114.31
891.495	1110.31
891.743	1081.31
891.992	1192.31
892.24	1090.31
892.488	972.31
892.737	970.31
892.985	1056.31
893.233	1065.31
893.481	1009.31
893.729	995.31
893.978	1151.31
894.226	1175.31
894.474	997.31
894.722	957.31
894.97	1011.31
895.219	1016.31
895.467	1026.31
895.715	1042.31
895.963	1007.31
896.211	957.31
896.46	891.31
896.708	1012.31
896.956	1084.31
897.204	1153.31
897.452	1035.31
897.7	973.31
897.948	1042.31
898.197	984.31
898.445	937.31
898.693	960.31
898.941	1023.31
899.189	1008.31
899.437	963.31
899.685	1030.31
899.933	967.31
900.181	975.31
900.43	885.31
900.678	900.31
900.926	961.31
901.174	930.31
901.422	878.31
901.67	921.31
901.918	972.31
902.166	931.31
902.414	796.31
902.662	862.31
902.91	972.31
903.158	942.31
903.406	869.31
903.654	884.31
903.902	909.31
904.15	906.31
904.398	796.31
904.646	887.31
904.894	972.31
905.142	951.31
905.39	896.31
905.638	842.31
905.886	856.31
906.134	878.31
906.382	863.31
906.63	783.31
906.878	887.31
907.126	875.31
907.374	807.31
907.622	804.31
907.869	936.31
908.117	908.31
908.365	828.31
908.613	802.31
908.861	803.31
909.109	751.31
909.357	721.31
909.605	805.31
909.853	890.31
910.1	818.31
910.348	665.31
910.596	719.31
910.844	876.31
911.092	905.31
911.34	811.31
911.588	828.31
911.835	871.31
912.083	841.31
912.331	801.31
912.579	839.31
912.827	998.31
913.075	863.31
913.322	751.31
913.57	755.31
913.818	875.31
914.066	779.31
914.313	721.31
914.561	817.31
914.809	827.31
915.057	779.31
915.305	760.31
915.552	747.31
915.8	848.31
916.048	766.31
916.296	679.31
916.543	791.31
916.791	891.31
917.039	822.31
917.286	701.31
917.534	696.31
917.782	781.31
918.03	706.31
918.277	617.31
918.525	624.31
918.773	749.31
919.02	736.31
919.268	684.31
919.516	703.31
919.763	707.31
920.011	723.31
920.259	592.31
920.506	689.31
920.754	793.31
921.002	771.31
921.249	711.31
921.497	675.31
921.745	712.31
921.992	735.31
922.24	590.31
922.487	702.31
922.735	872.31
922.983	790.31
923.23	684.31
923.478	652.31
923.725	733.31
923.973	737.31
924.221	680.31
924.468	713.31
924.716	699.31
924.963	674.31
925.211	632.31
925.458	687.31
925.706	807.31
925.953	840.31
926.201	628.31
926.448	601.31
926.696	705.31
926.944	705.31
927.191	618.31
927.439	621.31
927.686	645.31
927.934	685.31
928.181	564.31
928.429	559.31
928.676	627.31
928.923	565.31
929.171	529.31
929.418	667.31
929.666	715.31
929.913	697.31
930.161	519.31
930.408	528.31
930.656	614.31
930.903	647.31
931.151	526.31
931.398	555.31
931.645	686.31
931.893	603.31
932.14	574.31
932.388	577.31
932.635	703.31
932.882	736.31
933.13	622.31
933.377	532.31
933.625	617.31
933.872	556.31
934.119	472.31
934.367	497.31
934.614	531.31
934.861	518.31
935.109	509.31
935.356	566.31
935.603	603.31
935.851	543.31
936.098	468.31
936.345	564.31
936.593	602.31
936.84	560.31
937.087	410.31
937.335	498.31
937.582	557.31
937.829	584.31
938.077	540.31
938.324	494.31
938.571	568.31
938.818	509.31
939.066	481.31
939.313	470.31
939.56	588.31
939.807	603.31
940.055	471.31
940.302	493.31
940.549	646.31
940.796	571.31
941.044	499.31
941.291	521.31
941.538	670.31
941.785	545.31
942.033	483.31
942.28	551.31
942.527	573.31
942.774	545.31
943.021	395.31
943.269	434.31
943.516	543.31
943.763	558.31
944.01	494.31
944.257	553.31
944.504	610.31
944.752	562.31
944.999	509.31
945.246	447.31
945.493	529.31
945.74	507.31
945.987	435.31
946.234	497.31
946.482	575.31
946.729	472.31
946.976	424.31
947.223	440.31
947.47	614.31
947.717	556.31
947.964	547.31
948.211	486.31
948.458	571.31
948.705	492.31
948.952	406.31
949.2	499.31
949.447	613.31
949.694	592.31
949.941	436.31
950.188	413.31
950.435	445.31
950.682	463.31
950.929	341.31
951.176	403.31
951.423	565.31
951.67	516.31
951.917	483.31
952.164	482.31
952.411	535.31
952.658	582.31
952.905	428.31
953.152	373.31
953.399	488.31
953.646	476.31
953.893	371.31
954.14	411.31
954.387	453.31
954.634	448.31
954.881	395.31
955.128	431.31
955.375	407.31
955.622	430.31
955.869	451.31
956.115	421.31
956.362	485.31
956.609	459.31
956.856	369.31
957.103	361.31
957.35	463.31
957.597	494.31
957.844	432.31
958.091	411.31
958.338	477.31
958.585	407.31
958.831	264.31
959.078	327.31
959.325	473.31
959.572	371.31
959.819	288.31
960.066	254.31
960.313	392.31
960.559	395.31
960.806	259.31
961.053	310.31
961.3	467.31
961.547	488.31
961.794	267.31
962.04	424.31
962.287	459.31
962.534	324.31
962.781	309.31
963.028	375.31
963.274	464.31
963.521	354.31
963.768	292.31
964.015	343.31
964.262	502.31
964.508	354.31
964.755	256.31
965.002	293.31
965.249	317.31
965.495	275.31
965.742	248.31
965.989	253.31
966.236	373.31
966.482	305.31
966.729	263.31
966.976	243.31
967.222	307.31
967.469	327.31
967.716	259.31
967.963	258.31
968.209	337.31
968.456	295.31
968.703	191.31
968.949	287.31
969.196	470.31
969.443	480.31
969.689	232.31
969.936	204.31
970.183	303.31
970.429	249.31
970.676	212.31
970.923	283.31
971.169	341.31
971.416	260.31
971.663	221.31
971.909	271.31
972.156	360.31
972.402	352.31
972.649	270.31
972.896	295.31
973.142	315.31
973.389	327.31
973.635	241.31
973.882	333.31
974.129	413.31
974.375	289.31
974.622	194.31
974.868	205.31
975.115	277.31
975.361	232.31
975.608	215.31
975.855	360.31
976.101	365.31
976.348	289.31
976.594	226.31
976.841	280.31
977.087	274.31
977.334	325.31
977.58	177.31
977.827	183.31
978.073	316.31
978.32	292.31
978.566	162.31
978.813	251.31
979.059	295.31
979.306	247.31
979.552	164.31
979.799	255.31
980.045	251.31
980.292	237.31
980.538	161.31
980.785	165.31
981.031	210.31
981.278	171.31
981.524	118.31
981.771	255.31
982.017	403.31
982.263	307.31
982.51	176.31
982.756	243.31
983.003	294.31
983.249	247.31
983.495	165.31
983.742	156.31
983.988	231.31
984.235	260.31
984.481	164.31
984.727	157.31
984.974	282.31
985.22	283.31
985.467	220.31
985.713	189.31
985.959	295.31
986.206	282.31
986.452	188.31
986.698	232.31
986.945	236.31
987.191	274.31
987.437	279.31
987.684	245.31
987.93	380.31
988.176	281.31
988.423	86.31
988.669	190.31
988.915	356.31
989.162	202.31
989.408	97.31
989.654	159.31
989.901	199.31
990.147	204.31
990.393	196.31
990.639	252.31
990.886	280.31
991.132	344.31
991.378	272.31
991.625	382.31
991.871	353.31
992.117	270.31
992.363	200.31
992.61	235.31
992.856	344.31
993.102	187.31
993.348	126.31
993.594	149.31
993.841	198.31
994.087	348.31
994.333	213.31
994.579	188.31
994.826	248.31
995.072	251.31
995.318	45.31
995.564	99.31
995.81	226.31
996.057	183.31
996.303	82.31
996.549	99.31
996.795	216.31
997.041	206.31
997.287	150.31
997.534	141.31
997.78	210.31
998.026	215.31
998.272	97.31
998.518	101.31
998.764	243.31
999.01	247.31
999.256	145.31
999.503	111.31
999.749	152.31
999.995	113.31
1000.241	76.31
1000.487	148.31
1000.733	202.31
1000.979	159.31
1001.225	121.31
1001.471	191.31
1001.718	249.31
1001.964	298.31
1002.21	120.31
1002.456	139.31
1002.702	313.31
1002.948	207.31
1003.194	124.31
1003.44	107.31
1003.686	172.31
1003.932	123.31
1004.178	84.31
1004.424	157.31
1004.67	300.31
1004.916	272.31
1005.162	153.31
1005.408	105.31
1005.654	249.31
1005.9	85.31
1006.146	9.31
1006.392	103.31
1006.638	205.31
1006.884	166.31
1007.13	72.31
1007.376	47.31
1007.622	227.31
1007.868	249.31
1008.114	103.31
1008.36	173.31
1008.606	225.31
1008.852	245.31
1009.098	163.31
1009.344	178.31
1009.59	152.31
1009.836	47.31
1010.082	-15.69
1010.328	97.31
1010.574	179.31
1010.82	81.31
1011.065	-4.69
1011.311	14.31
1011.557	126.31
1011.803	96.31
1012.049	46.31
1012.295	77.31
1012.541	117.31
1012.787	119.31
1013.033	-17.69
1013.278	-21.69
1013.524	131.31
1013.77	192.31
1014.016	89.31
1014.262	99.31
1014.508	202.31
1014.754	44.31
1015	28.31
1015.245	181.31
1015.491	190.31
1015.737	162.31
1015.983	30.31
1016.229	-5.69
1016.475	109.31
1016.72	238.31
1016.966	253.31
1017.212	133.31
1017.458	202.31
1017.704	115.31
1017.949	1.31
1018.195	175.31
1018.441	272.31
1018.687	215.31
1018.933	47.31
1019.178	53.31
1019.424	213.31
1019.67	230.31
1019.916	15.31
1020.161	57.31
1020.407	122.31
1020.653	47.31
1020.899	-16.69
1021.144	73.31
1021.39	157.31
1021.636	54.31
1021.882	-26.69
1022.127	88.31
1022.373	232.31
1022.619	158.31
1022.865	51.31
1023.11	60.31
1023.356	170.31
1023.602	103.31
1023.847	39.31
1024.093	78.31
1024.339	69.31
1024.584	39.31
1024.83	18.31
1025.076	30.31
1025.321	158.31
1025.567	133.31
1025.813	18.31
1026.058	95.31
1026.304	151.31
1026.55	62.31
1026.795	56.31
1027.041	48.31
1027.287	94.31
1027.532	129.31
1027.778	106.31
1028.024	71.31
1028.269	123.31
1028.515	33.31
1028.76	-32.69
1029.006	38.31
1029.252	149.31
1029.497	84.31
1029.743	64.31
1029.989	-17.69
1030.234	127.31
1030.48	203.31
1030.725	-1.69
1030.971	40.31
1031.216	154.31
1031.462	76.31
1031.708	-58.69
1031.953	-12.69
1032.199	79.31
1032.444	80.31
1032.69	14.31
1032.935	13.31
1033.181	148.31
1033.426	23.31
1033.672	-121.69
1033.918	-52.69
1034.163	49.31
1034.409	33.31
1034.654	-1.69
1034.9	120.31
1035.145	135.31
1035.391	53.31
1035.636	-53.69
1035.882	30.31
1036.127	32.31
1036.373	-14.69
1036.618	-104.69
1036.864	4.31
1037.109	128.31
1037.355	29.31
1037.6	-36.69
1037.845	-3.69
1038.091	184.31
1038.336	157.31
1038.582	152.31
1038.827	231.31
1039.073	79.31
1039.318	-9.69
1039.564	-101.69
1039.809	-20.69
1040.055	151.31
1040.3	154.31
1040.545	-3.69
1040.791	-3.69
1041.036	60.31
1041.282	72.31
1041.527	121.31
1041.772	-62.69
1042.018	5.31
1042.263	56.31
1042.509	-84.69
1042.754	-56.69
1042.999	56.31
1043.245	34.31
1043.49	-111.69
1043.736	-34.69
1043.981	43.31
1044.226	58.31
1044.472	35.31
1044.717	39.31
1044.962	138.31
1045.208	56.31
1045.453	-178.69
1045.698	-100.69
1045.944	109.31
1046.189	48.31
1046.434	-48.69
1046.68	-27.69
1046.925	147.31
1047.17	-6.69
1047.416	-166.69
1047.661	-51.69
1047.906	92.31
1048.152	74.31
1048.397	-32.69
1048.642	-34.69
1048.887	148.31
1049.133	144.31
1049.378	-15.69
1049.623	-38.69
1049.869	90.31
1050.114	17.31
1050.359	-60.69
1050.604	10.31
1050.85	168.31
1051.095	28.31
1051.34	-73.69
1051.585	0.31
1051.831	196.31
1052.076	27.31
1052.321	-177.69
1052.566	-63.69
1052.812	131.31
1053.057	29.31
1053.302	-47.69
1053.547	27.31
1053.792	103.31
1054.038	81.31
1054.283	-121.69
1054.528	-30.69
1054.773	45.31
1055.018	27.31
1055.264	-82.69
1055.509	-112.69
1055.754	25.31
1055.999	-41.69
1056.244	-122.69
1056.49	-48.69
1056.735	63.31
1056.98	-2.69
1057.225	-104.69
1057.47	82.31
1057.715	12.31
1057.96	-61.69
1058.206	-95.69
1058.451	-4.69
1058.696	116.31
1058.941	47.31
1059.186	-126.69
1059.431	-96.69
1059.676	105.31
1059.922	62.31
1060.167	136.31
1060.412	298.31
1060.657	76.31
1060.902	17.31
1061.147	-155.69
1061.392	-64.69
1061.637	75.31
1061.882	-4.69
1062.127	-161.69
1062.373	-143.69
1062.618	129.31
1062.863	158.31
1063.108	-47.69
1063.353	-99.69
1063.598	-1.69
1063.843	-27.69
1064.088	-95.69
1064.333	-101.69
1064.578	52.31
1064.823	68.31
1065.068	-178.69
1065.313	-101.69
1065.558	59.31
1065.803	62.31
1066.048	-121.69
1066.293	-124.69
1066.538	75.31
1066.783	9.31
1067.028	-165.69
1067.273	-135.69
1067.518	34.31
1067.763	-17.69
1068.008	-165.69
1068.253	-93.69
1068.498	67.31
1068.743	8.31
1068.988	-144.69
1069.233	-130.69
1069.478	77.31
1069.723	129.31
1069.968	-58.69
1070.213	-34.69
1070.458	91.31
1070.703	-8.69
1070.948	-179.69
1071.193	-52.69
1071.438	61.31
1071.683	87.31
1071.928	-36.69
1072.173	-63.69
1072.418	24.31
1072.663	-3.69
1072.908	-130.69
1073.152	-70.69
1073.397	81.31
1073.642	-22.69
1073.887	-67.69
1074.132	36.31
1074.377	37.31
1074.622	12.31
1074.867	-104.69
1075.112	-49.69
1075.357	123.31
1075.601	-27.69
1075.846	-64.69
1076.091	29.31
1076.336	72.31
1076.581	-56.69
1076.826	-160.69
1077.071	-80.69
1077.315	193.31
1077.56	119.31
1077.805	-119.69
1078.05	-87.69
1078.295	-26.69
1078.54	-43.69
1078.785	-160.69
1079.029	-105.69
1079.274	72.31
1079.519	-61.69
1079.764	-148.69
1080.009	-38.69
1080.253	48.31
1080.498	-51.69
1080.743	-202.69
1080.988	-48.69
1081.233	155.31
1081.478	98.31
1081.722	-111.69
1081.967	-5.69
1082.212	156.31
1082.457	43.31
1082.701	-101.69
1082.946	-61.69
1083.191	74.31
1083.436	-44.69
1083.681	-192.69
1083.925	-98.69
1084.17	1.31
1084.415	43.31
1084.66	-165.69
1084.904	-75.69
1085.149	7.31
1085.394	-39.69
1085.639	-199.69
1085.883	-82.69
1086.128	165.31
1086.373	157.31
1086.617	-62.69
1086.862	-139.69
1087.107	-16.69
1087.352	-59.69
1087.596	-159.69
1087.841	-26.69
1088.086	33.31
1088.33	17.31
1088.575	-216.69
1088.82	-83.69
1089.064	86.31
1089.309	-67.69
1089.554	-176.69
1089.798	-153.69
1090.043	29.31
1090.288	-27.69
1090.533	-183.69
1090.777	-104.69
1091.022	37.31
1091.266	59.31
1091.511	-119.69
1091.756	-30.69
1092	122.31
1092.245	81.31
1092.49	-166.69
1092.734	-104.69
1092.979	72.31
1093.224	-23.69
1093.468	-164.69
1093.713	-124.69
1093.957	29.31
1094.202	-36.69
1094.447	-211.69
1094.691	-82.69
1094.936	45.31
1095.181	-0.69
1095.425	-184.69
1095.67	-149.69
1095.914	25.31
1096.159	-1.69
1096.403	-166.69
1096.648	-65.69
1096.893	67.31
1097.137	-72.69
1097.382	-216.69
1097.626	-142.69
1097.871	18.31
1098.115	-34.69
1098.36	-197.69
1098.605	-115.69
1098.849	-48.69
1099.094	-114.69
1099.338	-192.69
1099.583	-98.69
1099.827	124.31
1100.072	38.31
1100.316	-164.69
1100.561	-111.69
1100.805	44.31
1101.05	10.31
1101.294	-178.69
1101.539	-161.69
1101.783	2.31
1102.028	3.31
1102.273	-139.69
1102.517	-75.69
1102.761	47.31
1103.006	-58.69
1103.25	-277.69
1103.495	-190.69
1103.739	39.31
1103.984	100.31
1104.228	-88.69
1104.473	-24.69
1104.717	42.31
1104.962	8.31
1105.206	-123.69
1105.451	-154.69
1105.695	7.31
1105.94	-20.69
1106.184	-138.69
1106.429	-85.69
1106.673	0.31
1106.917	65.31
1107.162	-158.69
1107.406	-13.69
1107.651	133.31
1107.895	-85.69
1108.14	-196.69
1108.384	-109.69
1108.628	125.31
1108.873	110.31
1109.117	-132.69
1109.362	-105.69
1109.606	-15.69
1109.85	-21.69
1110.095	-161.69
1110.339	-85.69
1110.584	87.31
1110.828	26.31
1111.072	-98.69
1111.317	-134.69
1111.561	-35.69
1111.806	-32.69
1112.05	-179.69
1112.294	-85.69
1112.539	32.31
1112.783	-4.69
1113.027	-132.69
1113.272	-116.69
1113.516	-38.69
1113.76	-56.69
1114.005	-142.69
1114.249	-88.69
1114.493	74.31
1114.738	99.31
1114.982	-47.69
1115.226	-82.69
1115.471	-4.69
1115.715	-17.69
1115.959	-190.69
1116.204	-170.69
1116.448	-8.69
1116.692	-90.69
1116.937	-163.69
1117.181	-25.69
1117.425	-20.69
1117.67	-77.69
1117.914	-159.69
1118.158	-113.69
1118.402	144.31
1118.647	58.31
1118.891	-109.69
1119.135	-39.69
1119.38	106.31
1119.624	15.31
1119.868	-150.69
1120.112	-144.69
1120.357	-54.69
1120.601	-116.69
1120.845	-211.69
1121.089	-140.69
1121.334	40.31
