Data from HR4C21111__34__10-00-22-342.txt Node

Date: Mon Feb 22 10:00:22 IST 2021
User: Kapil
Spectrometer: HR4C2111
Trigger mode: 4
Integration Time (sec): 2.300000E0
Scans to average: 1
Electric dark correction enabled: true
Nonlinearity correction enabled: false
Boxcar width: 0
XAxis mode: Wavelengths
Number of Pixels in Spectrum: 3648
>>>>>Begin Spectral Data<<<<<
189.472	-441.69
189.745	-441.69
190.017	-441.69
190.289	-473.69
190.561	-307.69
190.834	-26.69
191.106	-123.69
191.378	14.31
191.65	9.31
191.923	-136.69
192.195	-103.69
192.467	127.31
192.739	106.31
193.011	-19.69
193.284	87.31
193.556	172.31
193.828	-17.69
194.1	-88.69
194.372	-114.69
194.644	50.31
194.916	68.31
195.188	-156.69
195.46	-82.69
195.732	43.31
196.004	-7.69
196.276	-101.69
196.548	-66.69
196.82	73.31
197.092	52.31
197.364	-147.69
197.636	-76.69
197.908	38.31
198.18	-54.69
198.452	-108.69
198.724	-51.69
198.996	64.31
199.268	84.31
199.54	-29.69
199.811	-114.69
200.083	89.31
200.355	15.31
200.627	-198.69
200.899	-70.69
201.171	57.31
201.442	-60.69
201.714	-175.69
201.986	-92.69
202.258	49.31
202.529	118.31
202.801	18.31
203.073	89.31
203.345	190.31
203.616	-2.69
203.888	-157.69
204.16	-171.69
204.431	69.31
204.703	-15.69
204.974	-158.69
205.246	-13.69
205.518	174.31
205.789	-8.69
206.061	-127.69
206.332	-101.69
206.604	22.31
206.876	101.31
207.147	125.31
207.419	26.31
207.69	139.31
207.962	-16.69
208.233	-174.69
208.505	13.31
208.776	189.31
209.047	81.31
209.319	-130.69
209.59	-87.69
209.862	107.31
210.133	-36.69
210.404	-145.69
210.676	-102.69
210.947	76.31
211.219	51.31
211.49	-124.69
211.761	-58.69
212.033	19.31
212.304	-40.69
212.575	-180.69
212.846	-88.69
213.118	24.31
213.389	-61.69
213.66	-104.69
213.931	-51.69
214.203	17.31
214.474	-36.69
214.745	-133.69
215.016	135.31
215.287	441.31
215.559	61.31
215.83	-118.69
216.101	-68.69
216.372	-17.69
216.643	68.31
216.914	21.31
217.185	-64.69
217.456	156.31
217.727	7.31
217.998	-174.69
218.269	-75.69
218.54	20.31
218.811	1.31
219.082	-98.69
219.353	-79.69
219.624	-19.69
219.895	-33.69
220.166	-135.69
220.437	-105.69
220.708	97.31
220.979	-2.69
221.25	-140.69
221.521	-98.69
221.792	34.31
222.063	92.31
222.334	34.31
222.604	186.31
222.875	172.31
223.146	89.31
223.417	-182.69
223.688	-37.69
223.958	126.31
224.229	-45.69
224.5	-180.69
224.771	-76.69
225.041	69.31
225.312	53.31
225.583	-107.69
225.854	-68.69
226.124	95.31
226.395	-12.69
226.666	-139.69
226.936	-107.69
227.207	61.31
227.478	-54.69
227.748	-109.69
228.019	37.31
228.289	236.31
228.56	-40.69
228.831	-50.69
229.101	36.31
229.372	54.31
229.642	-20.69
229.913	-160.69
230.183	-121.69
230.454	-4.69
230.724	-6.69
230.995	-105.69
231.265	-63.69
231.536	80.31
231.806	46.31
232.076	-113.69
232.347	-148.69
232.617	28.31
232.888	34.31
233.158	-59.69
233.428	-117.69
233.699	-7.69
233.969	-71.69
234.239	-159.69
234.51	-84.69
234.78	43.31
235.05	-24.69
235.321	-142.69
235.591	-90.69
235.861	59.31
236.131	-51.69
236.402	-185.69
236.672	-86.69
236.942	40.31
237.212	50.31
237.483	-41.69
237.753	10.31
238.023	166.31
238.293	23.31
238.563	-64.69
238.833	-114.69
239.103	48.31
239.374	-12.69
239.644	-136.69
239.914	-26.69
240.184	134.31
240.454	-5.69
240.724	-167.69
240.994	-51.69
241.264	28.31
241.534	51.31
241.804	-22.69
242.074	-103.69
242.344	-25.69
242.614	-49.69
242.884	-179.69
243.154	-125.69
243.424	46.31
243.694	80.31
243.964	-102.69
244.234	-79.69
244.503	125.31
244.773	5.31
245.043	-232.69
245.313	-138.69
245.583	130.31
245.853	86.31
246.123	-175.69
246.392	-107.69
246.662	2.31
246.932	-30.69
247.202	-173.69
247.471	-56.69
247.741	249.31
248.011	97.31
248.281	-126.69
248.55	-87.69
248.82	74.31
249.09	-1.69
249.359	-82.69
249.629	-59.69
249.899	60.31
250.168	67.31
250.438	-21.69
250.708	-114.69
250.977	70.31
251.247	44.31
251.516	-132.69
251.786	-62.69
252.055	105.31
252.325	4.31
252.595	-114.69
252.864	-73.69
253.134	36.31
253.403	-37.69
253.673	-182.69
253.942	-107.69
254.212	39.31
254.481	-6.69
254.75	-141.69
255.02	-76.69
255.289	80.31
255.559	-8.69
255.828	-134.69
256.097	-30.69
256.367	21.31
256.636	-58.69
256.906	-138.69
257.175	-21.69
257.444	236.31
257.714	50.31
257.983	-94.69
258.252	-42.69
258.521	-3.69
258.791	33.31
259.06	-123.69
259.329	-58.69
259.598	61.31
259.868	-12.69
260.137	-109.69
260.406	-12.69
260.675	68.31
260.944	4.31
261.214	-136.69
261.483	-32.69
261.752	188.31
262.021	15.31
262.29	-167.69
262.559	-124.69
262.828	29.31
263.097	-38.69
263.366	-206.69
263.635	-94.69
263.905	125.31
264.174	5.31
264.443	-218.69
264.712	-123.69
264.981	30.31
265.25	-38.69
265.519	-145.69
265.788	-147.69
266.057	32.31
266.325	66.31
266.594	-47.69
266.863	-111.69
267.132	24.31
267.401	-0.69
267.67	-194.69
267.939	-151.69
268.208	27.31
268.477	80.31
268.745	-112.69
269.014	-109.69
269.283	126.31
269.552	37.31
269.821	-109.69
270.089	-12.69
270.358	-16.69
270.627	-35.69
270.896	-145.69
271.164	-171.69
271.433	24.31
271.702	101.31
271.971	-139.69
272.239	-136.69
272.508	20.31
272.777	-43.69
273.045	-13.69
273.314	-31.69
273.583	88.31
273.851	-25.69
274.12	-146.69
274.388	-133.69
274.657	-6.69
274.926	-12.69
275.194	-162.69
275.463	-61.69
275.731	24.31
276	183.31
276.268	395.31
276.537	-75.69
276.805	14.31
277.074	37.31
277.342	-176.69
277.611	-97.69
277.879	103.31
278.148	31.31
278.416	-146.69
278.684	-128.69
278.953	-14.69
279.221	-25.69
279.49	-194.69
279.758	-96.69
280.026	6.31
280.295	11.31
280.563	-113.69
280.831	921.31
281.1	2251.31
281.368	222.31
281.636	-87.69
281.904	-111.69
282.173	-18.69
282.441	-72.69
282.709	-106.69
282.977	23.31
283.246	45.31
283.514	-38.69
283.782	-72.69
284.05	27.31
284.318	69.31
284.587	-30.69
284.855	-124.69
285.123	-42.69
285.391	77.31
285.659	39.31
285.927	-143.69
286.195	-63.69
286.463	61.31
286.732	1.31
287	-109.69
287.268	-57.69
287.536	23.31
287.804	-37.69
288.072	-149.69
288.34	-88.69
288.608	78.31
288.876	-36.69
289.144	-134.69
289.412	-24.69
289.68	33.31
289.948	-20.69
290.215	-110.69
290.483	-99.69
290.751	97.31
291.019	88.31
291.287	-166.69
291.555	-123.69
291.823	16.31
292.091	-19.69
292.358	-70.69
292.626	-6.69
292.894	97.31
293.162	68.31
293.43	-108.69
293.697	-71.69
293.965	46.31
294.233	-33.69
294.501	-177.69
294.768	-79.69
295.036	70.31
295.304	29.31
295.572	-139.69
295.839	-114.69
296.107	119.31
296.375	21.31
296.642	-123.69
296.91	-120.69
297.178	36.31
297.445	165.31
297.713	101.31
297.98	-95.69
298.248	-27.69
298.516	-32.69
298.783	-99.69
299.051	-104.69
299.318	-2.69
299.586	-43.69
299.853	-103.69
300.121	-86.69
300.388	46.31
300.656	-17.69
300.923	-156.69
301.191	-54.69
301.458	44.31
301.726	-14.69
301.993	-139.69
302.26	-93.69
302.528	61.31
302.795	-5.69
303.063	-79.69
303.33	-51.69
303.597	36.31
303.865	22.31
304.132	-110.69
304.399	-115.69
304.667	-29.69
304.934	6.31
305.201	-107.69
305.469	-2.69
305.736	63.31
306.003	44.31
306.27	-53.69
306.538	-106.69
306.805	-11.69
307.072	-32.69
307.339	-87.69
307.606	-41.69
307.874	174.31
308.141	75.31
308.408	-123.69
308.675	-104.69
308.942	-40.69
309.209	-58.69
309.477	-119.69
309.744	-104.69
310.011	23.31
310.278	48.31
310.545	-33.69
310.812	-59.69
311.079	134.31
311.346	197.31
311.613	55.31
311.88	-39.69
312.147	-61.69
312.414	-41.69
312.681	-101.69
312.948	-39.69
313.215	122.31
313.482	75.31
313.749	-95.69
314.016	-195.69
314.283	-50.69
314.55	41.31
314.817	-107.69
315.083	-123.69
315.35	-81.69
315.617	-130.69
315.884	-143.69
316.151	57.31
316.418	167.31
316.684	-16.69
316.951	-198.69
317.218	-122.69
317.485	-12.69
317.752	-61.69
318.018	-125.69
318.285	-5.69
318.552	20.31
318.819	-56.69
319.085	-130.69
319.352	-32.69
319.619	53.31
319.885	-36.69
320.152	-199.69
320.419	-115.69
320.685	16.31
320.952	-28.69
321.219	-71.69
321.485	64.31
321.752	24.31
322.019	-40.69
322.285	45.31
322.552	-1.69
322.818	136.31
323.085	-35.69
323.351	-143.69
323.618	-8.69
323.884	54.31
324.151	-71.69
324.417	-37.69
324.684	-77.69
324.95	-49.69
325.217	-148.69
325.483	-181.69
325.75	-31.69
326.016	4.31
326.283	-28.69
326.549	-176.69
326.815	-68.69
327.082	101.31
327.348	25.31
327.615	-98.69
327.881	-31.69
328.147	125.31
328.414	128.31
328.68	10.31
328.946	-37.69
329.212	24.31
329.479	-5.69
329.745	-103.69
330.011	-95.69
330.278	24.31
330.544	-34.69
330.81	-29.69
331.076	-18.69
331.342	-22.69
331.609	-32.69
331.875	-88.69
332.141	-99.69
332.407	27.31
332.673	-4.69
332.94	-14.69
333.206	-42.69
333.472	43.31
333.738	76.31
334.004	-109.69
334.27	-15.69
334.536	9.31
334.802	-21.69
335.068	-83.69
335.334	0.31
335.6	29.31
335.866	-23.69
336.132	-163.69
336.398	-102.69
336.664	-13.69
336.93	-43.69
337.196	-91.69
337.462	-25.69
337.728	39.31
337.994	-38.69
338.26	-91.69
338.526	-39.69
338.792	-44.69
339.058	-30.69
339.324	-125.69
339.59	3.31
339.856	69.31
340.121	-54.69
340.387	-115.69
340.653	90.31
340.919	155.31
341.185	66.31
341.45	-55.69
341.716	39.31
341.982	123.31
342.248	-47.69
342.514	-79.69
342.779	16.31
343.045	45.31
343.311	0.31
343.576	-92.69
343.842	-24.69
344.108	133.31
344.374	25.31
344.639	-102.69
344.905	-81.69
345.171	62.31
345.436	-51.69
345.702	-95.69
345.967	62.31
346.233	105.31
346.499	34.31
346.764	-169.69
347.03	-68.69
347.295	-24.69
347.561	13.31
347.826	-46.69
348.092	-118.69
348.357	4.31
348.623	-1.69
348.888	-103.69
349.154	-73.69
349.419	76.31
349.685	43.31
349.95	-37.69
350.216	-15.69
350.481	80.31
350.747	-12.69
351.012	-127.69
351.277	-50.69
351.543	64.31
351.808	13.31
352.074	-131.69
352.339	-88.69
352.604	77.31
352.87	43.31
353.135	-76.69
353.4	-9.69
353.666	49.31
353.931	23.31
354.196	-96.69
354.461	-79.69
354.727	77.31
354.992	60.31
355.257	-78.69
355.522	28.31
355.788	74.31
356.053	133.31
356.318	-25.69
356.583	-43.69
356.848	167.31
357.113	274.31
357.379	16.31
357.644	-10.69
357.909	180.31
358.174	211.31
358.439	-48.69
358.704	32.31
358.969	170.31
359.234	178.31
359.499	1.31
359.765	67.31
360.03	192.31
360.295	181.31
360.56	15.31
360.825	102.31
361.09	315.31
361.355	107.31
361.62	73.31
361.885	128.31
362.15	97.31
362.415	134.31
362.679	80.31
362.944	240.31
363.209	243.31
363.474	276.31
363.739	225.31
364.004	119.31
364.269	183.31
364.534	247.31
364.799	210.31
365.063	205.31
365.328	311.31
365.593	320.31
365.858	185.31
366.123	177.31
366.387	344.31
366.652	276.31
366.917	178.31
367.182	226.31
367.447	388.31
367.711	337.31
367.976	289.31
368.241	376.31
368.505	429.31
368.77	348.31
369.035	337.31
369.299	388.31
369.564	445.31
369.829	374.31
370.093	342.31
370.358	327.31
370.623	461.31
370.887	483.31
371.152	334.31
371.416	418.31
371.681	473.31
371.946	387.31
372.21	367.31
372.475	524.31
372.739	555.31
373.004	505.31
373.268	475.31
373.533	536.31
373.797	600.31
374.062	598.31
374.326	459.31
374.591	546.31
374.855	656.31
375.12	602.31
375.384	462.31
375.648	555.31
375.913	705.31
376.177	738.31
376.442	599.31
376.706	617.31
376.97	777.31
377.235	755.31
377.499	722.31
377.763	717.31
378.028	732.31
378.292	805.31
378.556	726.31
378.821	681.31
379.085	783.31
379.349	737.31
379.614	682.31
379.878	833.31
380.142	1008.31
380.406	942.31
380.671	956.31
380.935	1103.31
381.199	1222.31
381.463	1105.31
381.727	1065.31
381.991	1040.31
382.256	1114.31
382.52	1077.31
382.784	1106.31
383.048	1231.31
383.312	1183.31
383.576	1184.31
383.84	1126.31
384.104	1181.31
384.369	1293.31
384.633	1182.31
384.897	1091.31
385.161	1238.31
385.425	1381.31
385.689	1333.31
385.953	1283.31
386.217	1286.31
386.481	1438.31
386.745	1475.31
387.009	1443.31
387.273	1417.31
387.537	1463.31
387.801	1507.31
388.064	1495.31
388.328	1624.31
388.592	1676.31
388.856	1608.31
389.12	1563.31
389.384	1677.31
389.648	1730.31
389.912	1790.31
390.176	1825.31
390.439	1972.31
390.703	1820.31
390.967	1789.31
391.231	1725.31
391.495	1784.31
391.758	1877.31
392.022	1914.31
392.286	1804.31
392.55	1864.31
392.813	2002.31
393.077	2056.31
393.341	2011.31
393.605	2112.31
393.868	2076.31
394.132	2088.31
394.396	2050.31
394.659	2202.31
394.923	2207.31
395.187	2150.31
395.45	2150.31
395.714	2207.31
395.978	2245.31
396.241	2280.31
396.505	2251.31
396.768	2323.31
397.032	2437.31
397.295	2414.31
397.559	2371.31
397.823	2347.31
398.086	2492.31
398.35	2456.31
398.613	2354.31
398.877	2442.31
399.14	2625.31
399.404	2692.31
399.667	2597.31
399.931	2557.31
400.194	2657.31
400.457	2673.31
400.721	2685.31
400.984	2796.31
401.248	2759.31
401.511	2724.31
401.775	2605.31
402.038	2704.31
402.301	2963.31
402.565	2915.31
402.828	2717.31
403.091	2819.31
403.355	2961.31
403.618	2929.31
403.881	2952.31
404.145	3028.31
404.408	3090.31
404.671	3025.31
404.934	3100.31
405.198	3136.31
405.461	3175.31
405.724	3253.31
405.987	3214.31
406.251	3259.31
406.514	3394.31
406.777	3290.31
407.04	3205.31
407.303	3200.31
407.567	3340.31
407.83	3389.31
408.093	3228.31
408.356	3385.31
408.619	3492.31
408.882	3549.31
409.145	3485.31
409.408	3482.31
409.672	3599.31
409.935	3482.31
410.198	3380.31
410.461	3470.31
410.724	3740.31
410.987	3679.31
411.25	3462.31
411.513	3585.31
411.776	3684.31
412.039	3563.31
412.302	3542.31
412.565	3596.31
412.828	3599.31
413.091	3644.31
413.354	3599.31
413.617	3553.31
413.879	3651.31
414.142	3639.31
414.405	3484.31
414.668	3527.31
414.931	3630.31
415.194	3612.31
415.457	3462.31
415.72	3554.31
415.983	3603.31
416.245	3652.31
416.508	3544.31
416.771	3456.31
417.034	3605.31
417.297	3600.31
417.559	3569.31
417.822	3513.31
418.085	3635.31
418.348	3641.31
418.61	3497.31
418.873	3499.31
419.136	3531.31
419.399	3538.31
419.661	3605.31
419.924	3529.31
420.187	3673.31
420.449	3621.31
420.712	3552.31
420.975	3556.31
421.237	3679.31
421.5	3717.31
421.762	3741.31
422.025	3795.31
422.288	3907.31
422.55	3666.31
422.813	3567.31
423.075	3711.31
423.338	3851.31
423.601	3913.31
423.863	3799.31
424.126	3853.31
424.388	3926.31
424.651	3890.31
424.913	3912.31
425.176	3926.31
425.438	3948.31
425.701	3945.31
425.963	3844.31
426.225	3850.31
426.488	3925.31
426.75	3944.31
427.013	3943.31
427.275	4024.31
427.538	4038.31
427.8	4032.31
428.062	3955.31
428.325	3981.31
428.587	4059.31
428.849	4035.31
429.112	4096.31
429.374	4028.31
429.636	4053.31
429.899	4174.31
430.161	4096.31
430.423	4153.31
430.686	4280.31
430.948	4259.31
431.21	4095.31
431.472	4062.31
431.735	4223.31
431.997	4279.31
432.259	4225.31
432.521	4036.31
432.783	4200.31
433.046	4202.31
433.308	4095.31
433.57	4168.31
433.832	4411.31
434.094	4256.31
434.356	4103.31
434.618	4283.31
434.881	4330.31
435.143	4372.31
435.405	4367.31
435.667	4300.31
435.929	4304.31
436.191	4342.31
436.453	4245.31
436.715	4378.31
436.977	4534.31
437.239	4590.31
437.501	4432.31
437.763	4415.31
438.025	4502.31
438.287	4486.31
438.549	4473.31
438.811	4415.31
439.073	4426.31
439.335	4462.31
439.597	4402.31
439.859	4392.31
440.121	4560.31
440.383	4481.31
440.645	4418.31
440.907	4483.31
441.168	4524.31
441.43	4520.31
441.692	4485.31
441.954	4539.31
442.216	4587.31
442.478	4556.31
442.74	4432.31
443.001	4580.31
443.263	4721.31
443.525	4511.31
443.787	4411.31
444.048	4450.31
444.31	4473.31
444.572	4558.31
444.834	4550.31
445.095	4522.31
445.357	4693.31
445.619	4489.31
445.881	4361.31
446.142	4470.31
446.404	4468.31
446.666	4524.31
446.927	4540.31
447.189	4680.31
447.451	4706.31
447.712	4585.31
447.974	4381.31
448.235	4391.31
448.497	4458.31
448.759	4402.31
449.02	4449.31
449.282	4395.31
449.543	4472.31
449.805	4582.31
450.066	4377.31
450.328	4511.31
450.59	4667.31
450.851	4484.31
451.113	4400.31
451.374	4363.31
451.636	4529.31
451.897	4601.31
452.158	4538.31
452.42	4611.31
452.681	4647.31
452.943	4437.31
453.204	4420.31
453.466	4437.31
453.727	4448.31
453.988	4515.31
454.25	4397.31
454.511	4433.31
454.773	4517.31
455.034	4661.31
455.295	4346.31
455.557	4484.31
455.818	4544.31
456.079	4512.31
456.341	4589.31
456.602	4668.31
456.863	4736.31
457.124	4575.31
457.386	4380.31
457.647	4417.31
457.908	4497.31
458.169	4620.31
458.431	4527.31
458.692	4603.31
458.953	4642.31
459.214	4623.31
459.476	4809.31
459.737	4928.31
459.998	4897.31
460.259	4759.31
460.52	4714.31
460.781	4891.31
461.043	5061.31
461.304	4924.31
461.565	4707.31
461.826	4758.31
462.087	4955.31
462.348	5135.31
462.609	5103.31
462.87	5056.31
463.131	4985.31
463.392	5218.31
463.653	5212.31
463.914	5134.31
464.175	5116.31
464.436	5222.31
464.697	5259.31
464.958	5079.31
465.219	5124.31
465.48	5282.31
465.741	5330.31
466.002	5216.31
466.263	5458.31
466.524	5397.31
466.785	5234.31
467.046	5401.31
467.307	5537.31
467.568	5581.31
467.829	5570.31
468.089	5570.31
468.35	5599.31
468.611	5509.31
468.872	5467.31
469.133	5689.31
469.394	5917.31
469.655	6045.31
469.915	5877.31
470.176	5707.31
470.437	5784.31
470.698	5951.31
470.958	6001.31
471.219	5989.31
471.48	6145.31
471.741	6269.31
472.001	6268.31
472.262	6235.31
472.523	6439.31
472.784	6566.31
473.044	6478.31
473.305	6539.31
473.566	6497.31
473.826	6605.31
474.087	6577.31
474.348	6687.31
474.608	6866.31
474.869	6856.31
475.129	6797.31
475.39	6815.31
475.651	7033.31
475.911	7196.31
476.172	7051.31
476.432	7173.31
476.693	7427.31
476.953	7293.31
477.214	7312.31
477.475	7356.31
477.735	7385.31
477.996	7574.31
478.256	7426.31
478.517	7509.31
478.777	7674.31
479.038	7838.31
479.298	7865.31
479.558	7909.31
479.819	8039.31
480.079	8010.31
480.34	8095.31
480.6	8101.31
480.861	8277.31
481.121	8308.31
481.381	8288.31
481.642	8354.31
481.902	8372.31
482.162	8351.31
482.423	8384.31
482.683	8524.31
482.943	8631.31
483.204	8575.31
483.464	8600.31
483.724	8637.31
483.985	8729.31
484.245	8813.31
484.505	8808.31
484.765	8867.31
485.026	8973.31
485.286	9124.31
485.546	9115.31
485.806	9152.31
486.067	9192.31
486.327	9117.31
486.587	9103.31
486.847	9137.31
487.107	9268.31
487.368	9314.31
487.628	9273.31
487.888	9406.31
488.148	9543.31
488.408	9432.31
488.668	9468.31
488.928	9481.31
489.188	9468.31
489.449	9558.31
489.709	9479.31
489.969	9525.31
490.229	9693.31
490.489	9706.31
490.749	9638.31
491.009	9542.31
491.269	9660.31
491.529	9731.31
491.789	9712.31
492.049	9821.31
492.309	9872.31
492.569	9804.31
492.829	9757.31
493.089	9735.31
493.349	9915.31
493.609	9894.31
493.869	9774.31
494.129	9882.31
494.389	9982.31
494.648	9827.31
494.908	9760.31
495.168	9866.31
495.428	10017.31
495.688	9966.31
495.948	9831.31
496.208	9872.31
496.467	9908.31
496.727	9953.31
496.987	9971.31
497.247	9980.31
497.507	10036.31
497.767	10035.31
498.026	9906.31
498.286	10017.31
498.546	10198.31
498.806	10050.31
499.065	10148.31
499.325	10050.31
499.585	10007.31
499.845	9995.31
500.104	9996.31
500.364	10089.31
500.624	10122.31
500.883	10036.31
501.143	10070.31
501.403	10122.31
501.662	10198.31
501.922	10175.31
502.182	10018.31
502.441	9945.31
502.701	10044.31
502.96	10175.31
503.22	10108.31
503.48	10063.31
503.739	10135.31
503.999	10087.31
504.258	10005.31
504.518	10130.31
504.777	10166.31
505.037	10082.31
505.296	10023.31
505.556	10047.31
505.815	10193.31
506.075	10260.31
506.334	10200.31
506.594	9979.31
506.853	9995.31
507.113	10044.31
507.372	9916.31
507.632	10071.31
507.891	10099.31
508.151	10136.31
508.41	9974.31
508.669	10060.31
508.929	10137.31
509.188	10075.31
509.447	10063.31
509.707	10007.31
509.966	10111.31
510.226	10108.31
510.485	10070.31
510.744	10073.31
511.004	10139.31
511.263	10080.31
511.522	10046.31
511.781	10026.31
512.041	10186.31
512.3	10140.31
512.559	10122.31
512.818	10179.31
513.078	10139.31
513.337	10124.31
513.596	10039.31
513.855	10109.31
514.115	10202.31
514.374	10158.31
514.633	10065.31
514.892	10050.31
515.151	10204.31
515.41	10212.31
515.67	10181.31
515.929	10178.31
516.188	10262.31
516.447	10233.31
516.706	10079.31
516.965	10080.31
517.224	10221.31
517.483	10216.31
517.743	10066.31
518.002	10151.31
518.261	10255.31
518.52	10305.31
518.779	10203.31
519.038	10135.31
519.297	10192.31
519.556	10244.31
519.815	10124.31
520.074	10122.31
520.333	10288.31
520.592	10268.31
520.851	10114.31
521.11	10261.31
521.369	10359.31
521.628	10204.31
521.887	10149.31
522.145	10267.31
522.404	10276.31
522.663	10214.31
522.922	10101.31
523.181	10174.31
523.44	10314.31
523.699	10332.31
523.958	10128.31
524.217	10119.31
524.475	10168.31
524.734	10236.31
524.993	10234.31
525.252	10195.31
525.511	10222.31
525.769	10185.31
526.028	10152.31
526.287	10156.31
526.546	10213.31
526.805	10232.31
527.063	10097.31
527.322	10067.31
527.581	10111.31
527.839	10174.31
528.098	10217.31
528.357	10137.31
528.616	10156.31
528.874	10187.31
529.133	10147.31
529.392	10239.31
529.65	10179.31
529.909	10077.31
530.168	10011.31
530.426	10131.31
530.685	10248.31
530.943	10155.31
531.202	10057.31
531.461	10078.31
531.719	10177.31
531.978	10131.31
532.236	10015.31
532.495	10096.31
532.753	10195.31
533.012	10134.31
533.271	10083.31
533.529	10054.31
533.788	10130.31
534.046	10067.31
534.305	10062.31
534.563	10250.31
534.822	10320.31
535.08	10199.31
535.338	10096.31
535.597	10125.31
535.855	10212.31
536.114	10186.31
536.372	10121.31
536.631	10188.31
536.889	10273.31
537.147	10229.31
537.406	10013.31
537.664	10211.31
537.923	10298.31
538.181	10273.31
538.439	10121.31
538.698	10240.31
538.956	10303.31
539.214	10317.31
539.473	10243.31
539.731	10277.31
539.989	10455.31
540.248	10301.31
540.506	10291.31
540.764	10283.31
541.022	10304.31
541.281	10424.31
541.539	10369.31
541.797	10341.31
542.055	10514.31
542.314	10569.31
542.572	10494.31
542.83	10428.31
543.088	10624.31
543.346	10536.31
543.604	10450.31
543.863	10566.31
544.121	10707.31
544.379	10653.31
544.637	10520.31
544.895	10682.31
545.153	10886.31
545.411	10749.31
545.67	10667.31
545.928	10743.31
546.186	10845.31
546.444	10935.31
546.702	10880.31
546.96	10967.31
547.218	10976.31
547.476	10949.31
547.734	10876.31
547.992	10983.31
548.25	11152.31
548.508	11095.31
548.766	11080.31
549.024	11090.31
549.282	11148.31
549.54	11229.31
549.798	11192.31
550.056	11205.31
550.314	11330.31
550.572	11343.31
550.83	11265.31
551.088	11392.31
551.346	11542.31
551.603	11584.31
551.861	11509.31
552.119	11586.31
552.377	11720.31
552.635	11657.31
552.893	11576.31
553.151	11711.31
553.409	11827.31
553.666	11824.31
553.924	11840.31
554.182	11820.31
554.44	11853.31
554.698	11923.31
554.955	11887.31
555.213	11981.31
555.471	12022.31
555.729	12035.31
555.986	11923.31
556.244	12008.31
556.502	12203.31
556.76	12087.31
557.017	12035.31
557.275	12097.31
557.533	12282.31
557.79	12280.31
558.048	12111.31
558.306	12198.31
558.563	12389.31
558.821	12372.31
559.079	12261.31
559.336	12232.31
559.594	12355.31
559.852	12327.31
560.109	12209.31
560.367	12381.31
560.624	12495.31
560.882	12467.31
561.14	12468.31
561.397	12563.31
561.655	12484.31
561.912	12515.31
562.17	12380.31
562.427	12450.31
562.685	12526.31
562.942	12525.31
563.2	12483.31
563.457	12541.31
563.715	12611.31
563.972	12671.31
564.23	12439.31
564.487	12432.31
564.745	12552.31
565.002	12572.31
565.26	12500.31
565.517	12483.31
565.774	12498.31
566.032	12590.31
566.289	12514.31
566.547	12523.31
566.804	12574.31
567.061	12519.31
567.319	12428.31
567.576	12541.31
567.833	12661.31
568.091	12657.31
568.348	12510.31
568.605	12555.31
568.863	12609.31
569.12	12552.31
569.377	12437.31
569.635	12375.31
569.892	12389.31
570.149	12413.31
570.406	12285.31
570.664	12319.31
570.921	12472.31
571.178	12332.31
571.435	12242.31
571.693	12235.31
571.95	12295.31
572.207	12239.31
572.464	12200.31
572.721	12209.31
572.979	12221.31
573.236	12197.31
573.493	12076.31
573.75	12051.31
574.007	12087.31
574.264	12000.31
574.521	11919.31
574.779	11907.31
575.036	11995.31
575.293	11864.31
575.55	11745.31
575.807	11767.31
576.064	11778.31
576.321	11725.31
576.578	11543.31
576.835	11519.31
577.092	11693.31
577.349	11517.31
577.606	11327.31
577.863	11340.31
578.12	11433.31
578.377	11370.31
578.634	11135.31
578.891	11134.31
579.148	11205.31
579.405	11101.31
579.662	10991.31
579.919	11019.31
580.176	11028.31
580.433	10912.31
580.69	10756.31
580.947	10780.31
581.204	10892.31
581.461	10687.31
581.717	10567.31
581.974	10689.31
582.231	10679.31
582.488	10493.31
582.745	10207.31
583.002	10255.31
583.259	10437.31
583.515	10319.31
583.772	10085.31
584.029	10116.31
584.286	10183.31
584.543	9972.31
584.799	9887.31
585.056	9903.31
585.313	9983.31
585.57	9961.31
585.826	9701.31
586.083	9795.31
586.34	9896.31
586.597	9633.31
586.853	9500.31
587.11	9515.31
587.367	9613.31
587.623	9568.31
587.88	9400.31
588.137	9288.31
588.393	9393.31
588.65	9247.31
588.907	9104.31
589.163	9157.31
589.42	9196.31
589.677	9117.31
589.933	9024.31
590.19	9048.31
590.446	9149.31
590.703	9124.31
590.96	8820.31
591.216	8784.31
591.473	8886.31
591.729	8831.31
591.986	8775.31
592.242	8805.31
592.499	8932.31
592.755	8751.31
593.012	8628.31
593.268	8670.31
593.525	8650.31
593.781	8721.31
594.038	8555.31
594.294	8568.31
594.551	8589.31
594.807	8519.31
595.064	8537.31
595.32	8484.31
595.576	8563.31
595.833	8545.31
596.089	8357.31
596.346	8499.31
596.602	8556.31
596.858	8588.31
597.115	8362.31
597.371	8379.31
597.628	8410.31
597.884	8398.31
598.14	8274.31
598.397	8415.31
598.653	8487.31
598.909	8312.31
599.166	8195.31
599.422	8277.31
599.678	8304.31
599.934	8283.31
600.191	8147.31
600.447	8170.31
600.703	8234.31
600.959	8190.31
601.216	8043.31
601.472	8066.31
601.728	8141.31
601.984	8126.31
602.241	8027.31
602.497	8188.31
602.753	8313.31
603.009	8147.31
603.265	8075.31
603.521	8215.31
603.778	8259.31
604.034	8094.31
604.29	8039.31
604.546	8078.31
604.802	8106.31
605.058	8086.31
605.314	8045.31
605.571	8077.31
605.827	8072.31
606.083	8130.31
606.339	8049.31
606.595	8068.31
606.851	8157.31
607.107	8201.31
607.363	7968.31
607.619	7972.31
607.875	8180.31
608.131	8051.31
608.387	7817.31
608.643	7888.31
608.899	8017.31
609.155	8004.31
609.411	7919.31
609.667	7913.31
609.923	7964.31
610.179	7934.31
610.435	7777.31
610.691	7837.31
610.947	8020.31
611.203	7903.31
611.459	7836.31
611.714	7924.31
611.97	8026.31
612.226	7949.31
612.482	7731.31
612.738	7828.31
612.994	7998.31
613.25	7829.31
613.505	7658.31
613.761	7707.31
614.017	7771.31
614.273	7769.31
614.529	7714.31
614.785	7649.31
615.04	7719.31
615.296	7648.31
615.552	7619.31
615.808	7668.31
616.063	7722.31
616.319	7683.31
616.575	7509.31
616.831	7570.31
617.086	7729.31
617.342	7755.31
617.598	7586.31
617.854	7614.31
618.109	7656.31
618.365	7455.31
618.621	7427.31
618.876	7524.31
619.132	7567.31
619.388	7457.31
619.643	7292.31
619.899	7423.31
620.155	7503.31
620.41	7457.31
620.666	7317.31
620.921	7335.31
621.177	7484.31
621.433	7456.31
621.688	7303.31
621.944	7275.31
622.199	7309.31
622.455	7281.31
622.71	7156.31
622.966	7201.31
623.221	7167.31
623.477	7145.31
623.732	7133.31
623.988	7065.31
624.243	7180.31
624.499	7133.31
624.754	6924.31
625.01	6990.31
625.265	7087.31
625.521	7172.31
625.776	6958.31
626.032	6928.31
626.287	7036.31
626.543	6968.31
626.798	6860.31
627.053	6884.31
627.309	6972.31
627.564	6839.31
627.82	6796.31
628.075	6891.31
628.33	6837.31
628.586	6699.31
628.841	6590.31
629.096	6720.31
629.352	6815.31
629.607	6653.31
629.862	6647.31
630.118	6758.31
630.373	6631.31
630.628	6665.31
630.884	6545.31
631.139	6531.31
631.394	6669.31
631.649	6623.31
631.905	6470.31
632.16	6530.31
632.415	6671.31
632.67	6483.31
632.926	6320.31
633.181	6301.31
633.436	6411.31
633.691	6367.31
633.946	6195.31
634.202	6283.31
634.457	6323.31
634.712	6235.31
634.967	6146.31
635.222	6117.31
635.477	6240.31
635.733	6234.31
635.988	6140.31
636.243	6133.31
636.498	6230.31
636.753	6154.31
637.008	6004.31
637.263	6040.31
637.518	6099.31
637.773	6066.31
638.028	6016.31
638.283	6043.31
638.539	6118.31
638.794	6065.31
639.049	5868.31
639.304	5892.31
639.559	5907.31
639.814	5885.31
640.069	5816.31
640.324	5798.31
640.579	5874.31
640.834	5850.31
641.089	5730.31
641.344	5766.31
641.598	5959.31
641.853	5845.31
642.108	5635.31
642.363	5578.31
642.618	5745.31
642.873	5623.31
643.128	5473.31
643.383	5490.31
643.638	5583.31
643.893	5679.31
644.148	5576.31
644.402	5485.31
644.657	5537.31
644.912	5450.31
645.167	5459.31
645.422	5533.31
645.677	5520.31
645.931	5522.31
646.186	5488.31
646.441	5375.31
646.696	5353.31
646.951	5393.31
647.205	5355.31
647.46	5312.31
647.715	5377.31
647.97	5525.31
648.224	5596.31
648.479	5410.31
648.734	5474.31
648.989	5430.31
649.243	5308.31
649.498	5235.31
649.753	5283.31
650.007	5348.31
650.262	5248.31
650.517	5211.31
650.771	5219.31
651.026	5132.31
651.281	5058.31
651.535	5217.31
651.79	5219.31
652.045	5179.31
652.299	5117.31
652.554	5117.31
652.809	5180.31
653.063	5309.31
653.318	5175.31
653.572	5033.31
653.827	5145.31
654.081	5133.31
654.336	4999.31
654.591	4992.31
654.845	5103.31
655.1	5053.31
655.354	4971.31
655.609	5040.31
655.863	5133.31
656.118	5089.31
656.372	4941.31
656.627	4946.31
656.881	5027.31
657.136	4953.31
657.39	4887.31
657.645	5023.31
657.899	5131.31
658.153	4970.31
658.408	4912.31
658.662	4996.31
658.917	5002.31
659.171	4871.31
659.426	4807.31
659.68	4884.31
659.934	5016.31
660.189	4987.31
660.443	4880.31
660.697	4991.31
660.952	5064.31
661.206	4932.31
661.46	4758.31
661.715	4829.31
661.969	4960.31
662.223	4889.31
662.478	4839.31
662.732	4918.31
662.986	4929.31
663.241	4930.31
663.495	4818.31
663.749	4878.31
664.003	5043.31
664.258	4907.31
664.512	4808.31
664.766	4920.31
665.02	4947.31
665.275	4939.31
665.529	4777.31
665.783	4824.31
666.037	4913.31
666.291	4924.31
666.546	4825.31
666.8	4876.31
667.054	4835.31
667.308	4913.31
667.562	4791.31
667.816	4819.31
668.071	4918.31
668.325	4854.31
668.579	4855.31
668.833	4925.31
669.087	5064.31
669.341	5006.31
669.595	4837.31
669.849	4895.31
670.103	4978.31
670.357	4957.31
670.612	4907.31
670.866	4889.31
671.12	5000.31
671.374	4992.31
671.628	4962.31
671.882	4910.31
672.136	4989.31
672.39	5023.31
672.644	4833.31
672.898	5004.31
673.152	5155.31
673.406	5098.31
673.66	4999.31
673.914	5032.31
674.168	5147.31
674.422	5082.31
674.675	4940.31
674.929	4993.31
675.183	5108.31
675.437	5089.31
675.691	5057.31
675.945	5140.31
676.199	5245.31
676.453	5102.31
676.707	4986.31
676.961	5026.31
677.214	5149.31
677.468	5193.31
677.722	5150.31
677.976	5162.31
678.23	5205.31
678.484	5228.31
678.737	5095.31
678.991	5120.31
679.245	5180.31
679.499	5142.31
679.753	5140.31
680.006	5216.31
680.26	5313.31
680.514	5303.31
680.768	5173.31
681.021	5295.31
681.275	5307.31
681.529	5248.31
681.783	5242.31
682.036	5256.31
682.29	5239.31
682.544	5270.31
682.797	5191.31
683.051	5217.31
683.305	5321.31
683.559	5313.31
683.812	5361.31
684.066	5379.31
684.32	5452.31
684.573	5401.31
684.827	5415.31
685.08	5466.31
685.334	5556.31
685.588	5472.31
685.841	5333.31
686.095	5483.31
686.348	5505.31
686.602	5521.31
686.856	5451.31
687.109	5414.31
687.363	5457.31
687.616	5425.31
687.87	5325.31
688.123	5391.31
688.377	5521.31
688.63	5604.31
688.884	5549.31
689.137	5629.31
689.391	5603.31
689.644	5395.31
689.898	5351.31
690.151	5419.31
690.405	5559.31
690.658	5514.31
690.912	5463.31
691.165	5480.31
691.419	5610.31
691.672	5614.31
691.926	5498.31
692.179	5479.31
692.432	5533.31
692.686	5520.31
692.939	5457.31
693.193	5491.31
693.446	5634.31
693.699	5610.31
693.953	5607.31
694.206	5593.31
694.459	5717.31
694.713	5701.31
694.966	5558.31
695.219	5524.31
695.473	5664.31
695.726	5533.31
695.979	5462.31
696.233	5611.31
696.486	5692.31
696.739	5639.31
696.992	5485.31
697.246	5593.31
697.499	5700.31
697.752	5481.31
698.006	5497.31
698.259	5650.31
698.512	5601.31
698.765	5574.31
699.018	5511.31
699.272	5589.31
699.525	5589.31
699.778	5502.31
700.031	5480.31
700.284	5498.31
700.538	5617.31
700.791	5614.31
701.044	5527.31
701.297	5545.31
701.55	5554.31
701.803	5512.31
702.056	5483.31
702.31	5529.31
702.563	5583.31
702.816	5493.31
703.069	5390.31
703.322	5468.31
703.575	5554.31
703.828	5577.31
704.081	5479.31
704.334	5517.31
704.587	5594.31
704.84	5545.31
705.093	5482.31
705.346	5535.31
705.599	5551.31
705.853	5508.31
706.106	5578.31
706.359	5829.31
706.612	5568.31
706.865	5625.31
707.118	5489.31
707.37	5503.31
707.623	5610.31
707.876	5527.31
708.129	5472.31
708.382	5517.31
708.635	5637.31
708.888	5484.31
709.141	5378.31
709.394	5472.31
709.647	5546.31
709.9	5463.31
710.153	5367.31
710.406	5442.31
710.658	5524.31
710.911	5442.31
711.164	5272.31
711.417	5304.31
711.67	5414.31
711.923	5464.31
712.176	5340.31
712.428	5333.31
712.681	5420.31
712.934	5425.31
713.187	5359.31
713.44	5287.31
713.692	5359.31
713.945	5304.31
714.198	5203.31
714.451	5165.31
714.704	5349.31
714.956	5381.31
715.209	5371.31
715.462	5327.31
715.715	5325.31
715.967	5316.31
716.22	5140.31
716.473	5168.31
716.725	5352.31
716.978	5271.31
717.231	5259.31
717.484	5320.31
717.736	5183.31
717.989	5099.31
718.242	5057.31
718.494	5136.31
718.747	5227.31
718.999	5121.31
719.252	5123.31
719.505	5151.31
719.757	5131.31
720.01	5062.31
720.263	4999.31
720.515	5027.31
720.768	5128.31
721.02	5092.31
721.273	4947.31
721.525	4924.31
721.778	4963.31
722.031	5065.31
722.283	4955.31
722.536	4963.31
722.788	5029.31
723.041	4940.31
723.293	4863.31
723.546	4818.31
723.798	4935.31
724.051	5024.31
724.303	4945.31
724.556	4950.31
724.808	5014.31
725.061	4915.31
725.313	4835.31
725.566	4832.31
725.818	4878.31
726.071	4854.31
726.323	4677.31
726.575	4737.31
726.828	4888.31
727.08	4871.31
727.333	4719.31
727.585	4715.31
727.837	4787.31
728.09	4783.31
728.342	4615.31
728.595	4650.31
728.847	4825.31
729.099	4625.31
729.352	4599.31
729.604	4606.31
729.856	4674.31
730.109	4628.31
730.361	4599.31
730.613	4683.31
730.866	4757.31
731.118	4594.31
731.37	4503.31
731.622	4527.31
731.875	4595.31
732.127	4687.31
732.379	4656.31
732.631	4640.31
732.884	4607.31
733.136	4565.31
733.388	4427.31
733.64	4482.31
733.893	4659.31
734.145	4548.31
734.397	4385.31
734.649	4385.31
734.901	4478.31
735.154	4372.31
735.406	4335.31
735.658	4361.31
735.91	4480.31
736.162	4444.31
736.414	4269.31
736.667	4371.31
736.919	4391.31
737.171	4267.31
737.423	4213.31
737.675	4244.31
737.927	4361.31
738.179	4330.31
738.431	4267.31
738.684	4231.31
738.936	4298.31
739.188	4314.31
739.44	4130.31
739.692	4163.31
739.944	4180.31
740.196	4211.31
740.448	4146.31
740.7	4149.31
740.952	4140.31
741.204	4169.31
741.456	4067.31
741.708	4098.31
741.96	4136.31
742.212	4201.31
742.464	4162.31
742.716	4058.31
742.968	4160.31
743.22	4072.31
743.472	3977.31
743.724	4072.31
743.976	4220.31
744.228	4186.31
744.48	3952.31
744.732	3962.31
744.983	4093.31
745.235	4060.31
745.487	4011.31
745.739	4069.31
745.991	4050.31
746.243	4104.31
746.495	3928.31
746.747	3914.31
746.999	4046.31
747.25	4028.31
747.502	3957.31
747.754	4036.31
748.006	3951.31
748.258	4089.31
748.51	4090.31
748.761	3923.31
749.013	3992.31
749.265	4043.31
749.517	3980.31
749.768	4005.31
750.02	4033.31
750.272	4002.31
750.524	3821.31
750.776	3759.31
751.027	3975.31
751.279	4004.31
751.531	3766.31
751.782	3857.31
752.034	4003.31
752.286	3859.31
752.538	3703.31
752.789	3833.31
753.041	3916.31
753.293	3877.31
753.544	3808.31
753.796	3799.31
754.048	3845.31
754.299	3852.31
754.551	3836.31
754.803	3768.31
755.054	3807.31
755.306	3866.31
755.558	3703.31
755.809	3713.31
756.061	3873.31
756.312	3755.31
756.564	3691.31
756.816	3714.31
757.067	3721.31
757.319	3713.31
757.57	3635.31
757.822	3696.31
758.073	3819.31
758.325	3759.31
758.577	3608.31
758.828	3604.31
759.08	3777.31
759.331	3789.31
759.583	3573.31
759.834	3654.31
760.086	3625.31
760.337	3599.31
760.589	3545.31
760.84	3566.31
761.092	3678.31
761.343	3657.31
761.595	3484.31
761.846	3578.31
762.097	3595.31
762.349	3567.31
762.6	3397.31
762.852	3502.31
763.103	3664.31
763.355	3523.31
763.606	3438.31
763.857	3566.31
764.109	3652.31
764.36	3530.31
764.612	3456.31
764.863	3558.31
765.114	3569.31
765.366	3430.31
765.617	3332.31
765.868	3378.31
766.12	3497.31
766.371	3446.31
766.622	3283.31
766.874	3402.31
767.125	3516.31
767.376	3366.31
767.628	3289.31
767.879	3339.31
768.13	3447.31
768.381	3414.31
768.633	3371.31
768.884	3392.31
769.135	3454.31
769.386	3443.31
769.638	3356.31
769.889	3380.31
770.14	3381.31
770.391	3269.31
770.643	3232.31
770.894	3211.31
771.145	3369.31
771.396	3310.31
771.647	3185.31
771.899	3297.31
772.15	3369.31
772.401	3299.31
772.652	3151.31
772.903	3177.31
773.154	3508.31
773.406	3748.31
773.657	3221.31
773.908	3162.31
774.159	3235.31
774.41	3227.31
774.661	3103.31
774.912	3167.31
775.163	3315.31
775.414	3306.31
775.666	3082.31
775.917	3069.31
776.168	3127.31
776.419	3153.31
776.67	3026.31
776.921	3029.31
777.172	3115.31
777.423	3133.31
777.674	3169.31
777.925	3144.31
778.176	3065.31
778.427	3046.31
778.678	2989.31
778.929	2993.31
779.18	3077.31
779.431	3004.31
779.682	2989.31
779.933	2998.31
780.184	3055.31
780.435	3034.31
780.686	2959.31
780.937	3035.31
781.188	3075.31
781.439	3158.31
781.69	3095.31
781.941	3004.31
782.191	3029.31
782.442	2985.31
782.693	2876.31
782.944	2892.31
783.195	2961.31
783.446	2985.31
783.697	3009.31
783.948	2879.31
784.199	2841.31
784.449	2820.31
784.7	2833.31
784.951	2887.31
785.202	3038.31
785.453	2989.31
785.704	2767.31
785.954	2746.31
786.205	2833.31
786.456	2803.31
786.707	2760.31
786.958	2793.31
787.208	2841.31
787.459	2751.31
787.71	2785.31
787.961	2799.31
788.211	2885.31
788.462	2855.31
788.713	2773.31
788.964	2720.31
789.214	2851.31
789.465	2828.31
789.716	2776.31
789.967	2792.31
790.217	2794.31
790.468	2727.31
790.719	2639.31
790.969	2666.31
791.22	2719.31
791.471	2800.31
791.721	2831.31
791.972	2707.31
792.223	2764.31
792.473	2679.31
792.724	2653.31
792.975	2645.31
793.225	2699.31
793.476	2661.31
793.726	2574.31
793.977	2690.31
794.228	2810.31
794.478	2671.31
794.729	2555.31
794.979	2673.31
795.23	2700.31
795.481	2623.31
795.731	2517.31
795.982	2575.31
796.232	2594.31
796.483	2566.31
796.733	2505.31
796.984	2551.31
797.234	2638.31
797.485	2635.31
797.735	2475.31
797.986	2511.31
798.236	2606.31
798.487	2501.31
798.737	2518.31
798.988	2630.31
799.238	2656.31
799.489	2518.31
799.739	2468.31
799.99	2524.31
800.24	2619.31
800.491	2675.31
800.741	2516.31
800.991	2420.31
801.242	2494.31
801.492	2515.31
801.743	2458.31
801.993	2682.31
802.244	2864.31
802.494	2510.31
802.744	2415.31
802.995	2420.31
803.245	2480.31
803.495	2438.31
803.746	2389.31
803.996	2477.31
804.246	2479.31
804.497	2470.31
804.747	2362.31
804.997	2434.31
805.248	2396.31
805.498	2367.31
805.748	2388.31
805.999	2274.31
806.249	2342.31
806.499	2353.31
806.75	2252.31
807	2310.31
807.25	2385.31
807.5	2299.31
807.751	2337.31
808.001	2394.31
808.251	2411.31
808.501	2493.31
808.752	2469.31
809.002	2410.31
809.252	2372.31
809.502	2332.31
809.752	2290.31
810.003	2271.31
810.253	2341.31
810.503	2349.31
810.753	2374.31
811.003	2393.31
811.254	2387.31
811.504	2302.31
811.754	2283.31
812.004	2295.31
812.254	2524.31
812.504	2343.31
812.754	2236.31
813.005	2321.31
813.255	2383.31
813.505	2287.31
813.755	2199.31
814.005	2233.31
814.255	2262.31
814.505	2271.31
814.755	2172.31
815.005	2193.31
815.255	2306.31
815.505	2230.31
815.756	2223.31
816.006	2212.31
816.256	2212.31
816.506	2151.31
816.756	2067.31
817.006	2131.31
817.256	2213.31
817.506	2195.31
817.756	2141.31
818.006	2169.31
818.256	2202.31
818.506	2197.31
818.756	2086.31
819.006	2122.31
819.256	2215.31
819.506	2151.31
819.756	2056.31
820.006	2130.31
820.255	2151.31
820.505	2152.31
820.755	2057.31
821.005	2083.31
821.255	2195.31
821.505	2141.31
821.755	2049.31
822.005	2194.31
822.255	2252.31
822.505	2123.31
822.755	2131.31
823.004	2026.31
823.254	2062.31
823.504	2125.31
823.754	2111.31
824.004	2023.31
824.254	2097.31
824.504	2125.31
824.753	2167.31
825.003	2145.31
825.253	2183.31
825.503	2065.31
825.753	2040.31
826.002	2111.31
826.252	2296.31
826.502	2102.31
826.752	1987.31
827.002	2009.31
827.251	2111.31
827.501	2050.31
827.751	1961.31
828.001	2002.31
828.25	2085.31
828.5	1934.31
828.75	1921.31
829	2028.31
829.249	2143.31
829.499	1964.31
829.749	1948.31
829.998	2036.31
830.248	2045.31
830.498	1905.31
830.748	1927.31
830.997	2023.31
831.247	2059.31
831.497	2049.31
831.746	1974.31
831.996	2037.31
832.246	2155.31
832.495	2165.31
832.745	1891.31
832.994	1905.31
833.244	2057.31
833.494	1972.31
833.743	1888.31
833.993	1967.31
834.243	2013.31
834.492	1935.31
834.742	1918.31
834.991	1926.31
835.241	2087.31
835.49	1958.31
835.74	1797.31
835.99	1867.31
836.239	1967.31
836.489	2004.31
836.738	1882.31
836.988	1759.31
837.237	1912.31
837.487	1984.31
837.736	1850.31
837.986	1846.31
838.235	1929.31
838.485	1912.31
838.734	1845.31
838.984	1917.31
839.233	1881.31
839.483	1768.31
839.732	1746.31
839.982	1844.31
840.231	1924.31
840.481	1922.31
840.73	1779.31
840.979	1820.31
841.229	1849.31
841.478	1873.31
841.728	1744.31
841.977	1697.31
842.227	1772.31
842.476	1740.31
842.725	1703.31
842.975	1757.31
843.224	1876.31
843.474	1901.31
843.723	1749.31
843.972	1753.31
844.222	1784.31
844.471	1826.31
844.72	1750.31
844.97	1747.31
845.219	1816.31
845.468	1824.31
845.718	1779.31
845.967	1767.31
846.216	1790.31
846.466	1861.31
846.715	1722.31
846.964	1736.31
847.214	1727.31
847.463	1656.31
847.712	1680.31
847.961	1652.31
848.211	1731.31
848.46	1738.31
848.709	1685.31
848.958	1664.31
849.208	1730.31
849.457	1684.31
849.706	1677.31
849.955	1647.31
850.205	1650.31
850.454	1777.31
850.703	1778.31
850.952	1729.31
851.201	1771.31
851.451	1683.31
851.7	1673.31
851.949	1547.31
852.198	1654.31
852.447	1619.31
852.696	1554.31
852.946	1607.31
853.195	1752.31
853.444	1749.31
853.693	1524.31
853.942	1524.31
854.191	1624.31
854.44	1652.31
854.689	1565.31
854.939	1533.31
855.188	1492.31
855.437	1539.31
855.686	1541.31
855.935	1538.31
856.184	1609.31
856.433	1660.31
856.682	1608.31
856.931	1597.31
857.18	1602.31
857.429	1513.31
857.678	1467.31
857.927	1558.31
858.176	1586.31
858.425	1501.31
858.674	1392.31
858.924	1481.31
859.173	1501.31
859.422	1527.31
859.671	1410.31
859.92	1455.31
860.169	1503.31
860.417	1579.31
860.666	1489.31
860.915	1416.31
861.164	1471.31
861.413	1449.31
861.662	1351.31
861.911	1386.31
862.16	1524.31
862.409	1457.31
862.658	1316.31
862.907	1380.31
863.156	1483.31
863.405	1452.31
863.654	1337.31
863.903	1304.31
864.151	1415.31
864.4	1461.31
864.649	1380.31
864.898	1440.31
865.147	1492.31
865.396	1515.31
865.645	1331.31
865.894	1392.31
866.142	1504.31
866.391	1413.31
866.64	1319.31
866.889	1401.31
867.138	1533.31
867.387	1416.31
867.635	1311.31
867.884	1382.31
868.133	1468.31
868.382	1388.31
868.631	1270.31
868.879	1285.31
869.128	1363.31
869.377	1339.31
869.626	1252.31
869.874	1292.31
870.123	1389.31
870.372	1331.31
870.621	1206.31
870.869	1248.31
871.118	1366.31
871.367	1345.31
871.616	1239.31
871.864	1338.31
872.113	1344.31
872.362	1294.31
872.61	1267.31
872.859	1313.31
873.108	1360.31
873.357	1284.31
873.605	1174.31
873.854	1157.31
874.103	1241.31
874.351	1263.31
874.6	1212.31
874.848	1242.31
875.097	1301.31
875.346	1271.31
875.594	1149.31
875.843	1274.31
876.092	1411.31
876.34	1297.31
876.589	1200.31
876.837	1092.31
877.086	1172.31
877.335	1255.31
877.583	1194.31
877.832	1240.31
878.08	1337.31
878.329	1225.31
878.578	1151.31
878.826	1152.31
879.075	1245.31
879.323	1271.31
879.572	1156.31
879.82	1272.31
880.069	1261.31
880.317	1255.31
880.566	1109.31
880.814	1185.31
881.063	1308.31
881.311	1224.31
881.56	1252.31
881.808	1187.31
882.057	1231.31
882.305	1178.31
882.554	1176.31
882.802	1097.31
883.051	1163.31
883.299	1160.31
883.548	1094.31
883.796	1181.31
884.045	1196.31
884.293	1113.31
884.541	1013.31
884.79	981.31
885.038	1066.31
885.287	1086.31
885.535	1103.31
885.783	1146.31
886.032	1107.31
886.28	1078.31
886.529	1014.31
886.777	1064.31
887.025	1218.31
887.274	1105.31
887.522	1032.31
887.77	1035.31
888.019	1058.31
888.267	1038.31
888.516	952.31
888.764	994.31
889.012	1081.31
889.261	1073.31
889.509	968.31
889.757	1000.31
890.005	1028.31
890.254	1005.31
890.502	1025.31
890.75	1202.31
890.999	1180.31
891.247	1089.31
891.495	1060.31
891.743	1023.31
891.992	1140.31
892.24	1034.31
892.488	919.31
892.737	950.31
892.985	1077.31
893.233	1057.31
893.481	985.31
893.729	955.31
893.978	1107.31
894.226	1153.31
894.474	975.31
894.722	938.31
894.97	970.31
895.219	959.31
895.467	996.31
895.715	1027.31
895.963	994.31
896.211	921.31
896.46	838.31
896.708	972.31
896.956	1064.31
897.204	1119.31
897.452	1029.31
897.7	941.31
897.948	1045.31
898.197	985.31
898.445	916.31
898.693	921.31
898.941	977.31
899.189	964.31
899.437	912.31
899.685	1001.31
899.933	948.31
900.181	945.31
900.43	853.31
900.678	871.31
900.926	960.31
901.174	915.31
901.422	870.31
901.67	886.31
901.918	955.31
902.166	903.31
902.414	773.31
902.662	823.31
902.91	925.31
903.158	911.31
903.406	845.31
903.654	857.31
903.902	879.31
904.15	862.31
904.398	751.31
904.646	850.31
904.894	932.31
905.142	914.31
905.39	867.31
905.638	824.31
905.886	845.31
906.134	831.31
906.382	824.31
906.63	774.31
906.878	865.31
907.126	831.31
907.374	770.31
907.622	791.31
907.869	921.31
908.117	911.31
908.365	809.31
908.613	772.31
908.861	778.31
909.109	736.31
909.357	720.31
909.605	761.31
909.853	860.31
910.1	783.31
910.348	623.31
910.596	686.31
910.844	859.31
911.092	902.31
911.34	783.31
911.588	782.31
911.835	822.31
912.083	798.31
912.331	781.31
912.579	828.31
912.827	987.31
913.075	841.31
913.322	720.31
913.57	743.31
913.818	871.31
914.066	790.31
914.313	712.31
914.561	786.31
914.809	807.31
915.057	721.31
915.305	707.31
915.552	745.31
915.8	835.31
916.048	726.31
916.296	625.31
916.543	741.31
916.791	842.31
917.039	771.31
917.286	639.31
917.534	659.31
917.782	805.31
918.03	718.31
918.277	599.31
918.525	602.31
918.773	736.31
919.02	719.31
919.268	658.31
919.516	672.31
919.763	677.31
920.011	694.31
920.259	597.31
920.506	651.31
920.754	770.31
921.002	758.31
921.249	696.31
921.497	665.31
921.745	697.31
921.992	712.31
922.24	577.31
922.487	708.31
922.735	871.31
922.983	759.31
923.23	651.31
923.478	610.31
923.725	685.31
923.973	701.31
924.221	679.31
924.468	708.31
924.716	702.31
924.963	675.31
925.211	605.31
925.458	669.31
925.706	781.31
925.953	811.31
926.201	619.31
926.448	588.31
926.696	671.31
926.944	642.31
927.191	577.31
927.439	597.31
927.686	639.31
927.934	643.31
928.181	539.31
928.429	548.31
928.676	600.31
928.923	530.31
929.171	502.31
929.418	642.31
929.666	676.31
929.913	682.31
930.161	478.31
930.408	523.31
930.656	596.31
930.903	624.31
931.151	489.31
931.398	562.31
931.645	674.31
931.893	569.31
932.14	517.31
932.388	529.31
932.635	677.31
932.882	742.31
933.13	612.31
933.377	540.31
933.625	623.31
933.872	544.31
934.119	465.31
934.367	517.31
934.614	514.31
934.861	501.31
935.109	499.31
935.356	543.31
935.603	583.31
935.851	526.31
936.098	472.31
936.345	578.31
936.593	616.31
936.84	543.31
937.087	419.31
937.335	484.31
937.582	534.31
937.829	553.31
938.077	524.31
938.324	487.31
938.571	572.31
938.818	508.31
939.066	445.31
939.313	420.31
939.56	543.31
939.807	564.31
940.055	438.31
940.302	477.31
940.549	618.31
940.796	536.31
941.044	490.31
941.291	494.31
941.538	642.31
941.785	535.31
942.033	481.31
942.28	549.31
942.527	587.31
942.774	536.31
943.021	370.31
943.269	408.31
943.516	523.31
943.763	531.31
944.01	471.31
944.257	540.31
944.504	587.31
944.752	536.31
944.999	507.31
945.246	460.31
945.493	514.31
945.74	490.31
945.987	401.31
946.234	480.31
946.482	575.31
946.729	454.31
946.976	388.31
947.223	423.31
947.47	584.31
947.717	529.31
947.964	539.31
948.211	499.31
948.458	567.31
948.705	469.31
948.952	376.31
949.2	461.31
949.447	578.31
949.694	577.31
949.941	420.31
950.188	395.31
950.435	422.31
950.682	451.31
950.929	324.31
951.176	394.31
951.423	541.31
951.67	500.31
951.917	459.31
952.164	471.31
952.411	544.31
952.658	582.31
952.905	416.31
953.152	353.31
953.399	467.31
953.646	472.31
953.893	346.31
954.14	378.31
954.387	428.31
954.634	434.31
954.881	375.31
955.128	447.31
955.375	425.31
955.622	417.31
955.869	412.31
956.115	388.31
956.362	473.31
956.609	461.31
956.856	379.31
957.103	371.31
957.35	483.31
957.597	481.31
957.844	406.31
958.091	396.31
958.338	474.31
958.585	395.31
958.831	207.31
959.078	293.31
959.325	467.31
959.572	369.31
959.819	279.31
960.066	245.31
960.313	400.31
960.559	374.31
960.806	242.31
961.053	284.31
961.3	448.31
961.547	463.31
961.794	259.31
962.04	431.31
962.287	463.31
962.534	308.31
962.781	299.31
963.028	382.31
963.274	500.31
963.521	386.31
963.768	287.31
964.015	338.31
964.262	501.31
964.508	343.31
964.755	239.31
965.002	279.31
965.249	319.31
965.495	258.31
965.742	243.31
965.989	263.31
966.236	378.31
966.482	299.31
966.729	257.31
966.976	244.31
967.222	307.31
967.469	312.31
967.716	247.31
967.963	260.31
968.209	335.31
968.456	294.31
968.703	185.31
968.949	283.31
969.196	440.31
969.443	434.31
969.689	218.31
969.936	196.31
970.183	298.31
970.429	227.31
970.676	200.31
970.923	264.31
971.169	350.31
971.416	269.31
971.663	234.31
971.909	279.31
972.156	343.31
972.402	325.31
972.649	268.31
972.896	294.31
973.142	323.31
973.389	317.31
973.635	228.31
973.882	334.31
974.129	411.31
974.375	269.31
974.622	170.31
974.868	192.31
975.115	289.31
975.361	250.31
975.608	210.31
975.855	324.31
976.101	343.31
976.348	277.31
976.594	201.31
976.841	256.31
977.087	275.31
977.334	316.31
977.58	178.31
977.827	169.31
978.073	317.31
978.32	301.31
978.566	156.31
978.813	231.31
979.059	266.31
979.306	244.31
979.552	147.31
979.799	217.31
980.045	237.31
980.292	231.31
980.538	146.31
980.785	141.31
981.031	190.31
981.278	156.31
981.524	103.31
981.771	269.31
982.017	393.31
982.263	298.31
982.51	164.31
982.756	224.31
983.003	304.31
983.249	255.31
983.495	144.31
983.742	128.31
983.988	208.31
984.235	222.31
984.481	141.31
984.727	143.31
984.974	267.31
985.22	275.31
985.467	182.31
985.713	165.31
985.959	285.31
986.206	286.31
986.452	192.31
986.698	225.31
986.945	222.31
987.191	272.31
987.437	279.31
987.684	209.31
987.93	356.31
988.176	277.31
988.423	92.31
988.669	157.31
988.915	323.31
989.162	179.31
989.408	80.31
989.654	133.31
989.901	177.31
990.147	172.31
990.393	191.31
990.639	263.31
990.886	281.31
991.132	323.31
991.378	279.31
991.625	396.31
991.871	344.31
992.117	262.31
992.363	187.31
992.61	214.31
992.856	319.31
993.102	183.31
993.348	121.31
993.594	167.31
993.841	209.31
994.087	316.31
994.333	185.31
994.579	168.31
994.826	223.31
995.072	233.31
995.318	45.31
995.564	91.31
995.81	218.31
996.057	167.31
996.303	53.31
996.549	83.31
996.795	188.31
997.041	169.31
997.287	126.31
997.534	127.31
997.78	204.31
998.026	205.31
998.272	86.31
998.518	79.31
998.764	213.31
999.01	240.31
999.256	135.31
999.503	121.31
999.749	131.31
999.995	109.31
1000.241	83.31
1000.487	156.31
1000.733	197.31
1000.979	151.31
1001.225	117.31
1001.471	175.31
1001.718	224.31
1001.964	278.31
1002.21	91.31
1002.456	127.31
1002.702	283.31
1002.948	182.31
1003.194	98.31
1003.44	92.31
1003.686	172.31
1003.932	118.31
1004.178	76.31
1004.424	128.31
1004.67	254.31
1004.916	239.31
1005.162	155.31
1005.408	101.31
1005.654	232.31
1005.9	73.31
1006.146	16.31
1006.392	89.31
1006.638	164.31
1006.884	127.31
1007.13	68.31
1007.376	44.31
1007.622	223.31
1007.868	233.31
1008.114	106.31
1008.36	171.31
1008.606	194.31
1008.852	199.31
1009.098	139.31
1009.344	197.31
1009.59	164.31
1009.836	37.31
1010.082	-34.69
1010.328	64.31
1010.574	140.31
1010.82	38.31
1011.065	-19.69
1011.311	17.31
1011.557	120.31
1011.803	86.31
1012.049	12.31
1012.295	66.31
1012.541	104.31
1012.787	122.31
1013.033	-2.69
1013.278	-42.69
1013.524	100.31
1013.77	181.31
1014.016	75.31
1014.262	82.31
1014.508	184.31
1014.754	30.31
1015	17.31
1015.245	177.31
1015.491	183.31
1015.737	145.31
1015.983	19.31
1016.229	-15.69
1016.475	90.31
1016.72	237.31
1016.966	246.31
1017.212	124.31
1017.458	182.31
1017.704	103.31
1017.949	-10.69
1018.195	164.31
1018.441	249.31
1018.687	181.31
1018.933	36.31
1019.178	41.31
1019.424	197.31
1019.67	216.31
1019.916	13.31
1020.161	42.31
1020.407	121.31
1020.653	67.31
1020.899	-10.69
1021.144	76.31
1021.39	163.31
1021.636	34.31
1021.882	-61.69
1022.127	48.31
1022.373	190.31
1022.619	139.31
1022.865	42.31
1023.11	36.31
1023.356	164.31
1023.602	112.31
1023.847	52.31
1024.093	88.31
1024.339	57.31
1024.584	29.31
1024.83	22.31
1025.076	17.31
1025.321	159.31
1025.567	116.31
1025.813	21.31
1026.058	83.31
1026.304	123.31
1026.55	68.31
1026.795	37.31
1027.041	44.31
1027.287	101.31
1027.532	121.31
1027.778	87.31
1028.024	48.31
1028.269	77.31
1028.515	-1.69
1028.76	-31.69
1029.006	40.31
1029.252	145.31
1029.497	71.31
1029.743	45.31
1029.989	-19.69
1030.234	114.31
1030.48	203.31
1030.725	-8.69
1030.971	13.31
1031.216	169.31
1031.462	72.31
1031.708	-65.69
1031.953	-30.69
1032.199	55.31
1032.444	71.31
1032.69	8.31
1032.935	0.31
1033.181	122.31
1033.426	10.31
1033.672	-123.69
1033.918	-77.69
1034.163	44.31
1034.409	37.31
1034.654	-8.69
1034.9	103.31
1035.145	134.31
1035.391	44.31
1035.636	-82.69
1035.882	19.31
1036.127	20.31
1036.373	-19.69
1036.618	-118.69
1036.864	-12.69
1037.109	126.31
1037.355	49.31
1037.6	-43.69
1037.845	13.31
1038.091	195.31
1038.336	157.31
1038.582	157.31
1038.827	220.31
1039.073	61.31
1039.318	-14.69
1039.564	-88.69
1039.809	-29.69
1040.055	151.31
1040.3	133.31
1040.545	-24.69
1040.791	-23.69
1041.036	24.31
1041.282	53.31
1041.527	112.31
1041.772	-53.69
1042.018	10.31
1042.263	47.31
1042.509	-108.69
1042.754	-59.69
1042.999	62.31
1043.245	28.31
1043.49	-139.69
1043.736	-59.69
1043.981	24.31
1044.226	43.31
1044.472	33.31
1044.717	11.31
1044.962	107.31
1045.208	35.31
1045.453	-178.69
1045.698	-95.69
1045.944	101.31
1046.189	60.31
1046.434	-17.69
1046.68	-7.69
1046.925	156.31
1047.17	4.31
1047.416	-170.69
1047.661	-76.69
1047.906	59.31
1048.152	37.31
1048.397	-40.69
1048.642	-60.69
1048.887	137.31
1049.133	148.31
1049.378	-38.69
1049.623	-48.69
1049.869	70.31
1050.114	3.31
1050.359	-79.69
1050.604	5.31
1050.85	165.31
1051.095	32.31
1051.34	-75.69
1051.585	-8.69
1051.831	171.31
1052.076	17.31
1052.321	-187.69
1052.566	-67.69
1052.812	109.31
1053.057	25.31
1053.302	-49.69
1053.547	52.31
1053.792	111.31
1054.038	90.31
1054.283	-110.69
1054.528	-46.69
1054.773	31.31
1055.018	28.31
1055.264	-82.69
1055.509	-114.69
1055.754	28.31
1055.999	-42.69
1056.244	-130.69
1056.49	-62.69
1056.735	37.31
1056.98	-15.69
1057.225	-111.69
1057.47	77.31
1057.715	0.31
1057.96	-77.69
1058.206	-133.69
1058.451	-37.69
1058.696	113.31
1058.941	47.31
1059.186	-126.69
1059.431	-89.69
1059.676	89.31
1059.922	25.31
1060.167	123.31
1060.412	290.31
1060.657	65.31
1060.902	5.31
1061.147	-155.69
1061.392	-84.69
1061.637	53.31
1061.882	-22.69
1062.127	-166.69
1062.373	-147.69
1062.618	121.31
1062.863	143.31
1063.108	-38.69
1063.353	-112.69
1063.598	-0.69
1063.843	-31.69
1064.088	-115.69
1064.333	-105.69
1064.578	41.31
1064.823	57.31
1065.068	-166.69
1065.313	-104.69
1065.558	48.31
1065.803	51.31
1066.048	-136.69
1066.293	-127.69
1066.538	79.31
1066.783	17.31
1067.028	-168.69
1067.273	-141.69
1067.518	36.31
1067.763	-21.69
1068.008	-179.69
1068.253	-105.69
1068.498	71.31
1068.743	-0.69
1068.988	-154.69
1069.233	-150.69
1069.478	65.31
1069.723	132.31
1069.968	-56.69
1070.213	-0.69
1070.458	95.31
1070.703	-12.69
1070.948	-190.69
1071.193	-90.69
1071.438	60.31
1071.683	90.31
1071.928	-36.69
1072.173	-65.69
1072.418	0.31
1072.663	-22.69
1072.908	-152.69
1073.152	-83.69
1073.397	91.31
1073.642	-26.69
1073.887	-77.69
1074.132	42.31
1074.377	26.31
1074.622	-5.69
1074.867	-129.69
1075.112	-48.69
1075.357	150.31
1075.601	-21.69
1075.846	-86.69
1076.091	30.31
1076.336	75.31
1076.581	-59.69
1076.826	-172.69
1077.071	-59.69
1077.315	183.31
1077.56	99.31
1077.805	-107.69
1078.05	-62.69
1078.295	-27.69
1078.54	-54.69
1078.785	-165.69
1079.029	-98.69
1079.274	74.31
1079.519	-68.69
1079.764	-171.69
1080.009	-53.69
1080.253	33.31
1080.498	-66.69
1080.743	-221.69
1080.988	-68.69
1081.233	152.31
1081.478	84.31
1081.722	-120.69
1081.967	-6.69
1082.212	152.31
1082.457	38.31
1082.701	-96.69
1082.946	-67.69
1083.191	49.31
1083.436	-63.69
1083.681	-204.69
1083.925	-105.69
1084.17	3.31
1084.415	25.31
1084.66	-194.69
1084.904	-86.69
1085.149	-0.69
1085.394	-47.69
1085.639	-210.69
1085.883	-108.69
1086.128	159.31
1086.373	171.31
1086.617	-77.69
1086.862	-146.69
1087.107	-12.69
1087.352	-73.69
1087.596	-159.69
1087.841	-26.69
1088.086	23.31
1088.33	4.31
1088.575	-233.69
1088.82	-89.69
1089.064	61.31
1089.309	-86.69
1089.554	-201.69
1089.798	-167.69
1090.043	24.31
1090.288	-14.69
1090.533	-179.69
1090.777	-105.69
1091.022	23.31
1091.266	54.31
1091.511	-119.69
1091.756	-44.69
1092	119.31
1092.245	81.31
1092.49	-167.69
1092.734	-104.69
1092.979	87.31
1093.224	-23.69
1093.468	-188.69
1093.713	-133.69
1093.957	10.31
1094.202	-64.69
1094.447	-223.69
1094.691	-104.69
1094.936	44.31
1095.181	3.31
1095.425	-172.69
1095.67	-160.69
1095.914	5.31
1096.159	3.31
1096.403	-147.69
1096.648	-67.69
1096.893	57.31
1097.137	-94.69
1097.382	-240.69
1097.626	-147.69
1097.871	16.31
1098.115	-41.69
1098.36	-220.69
1098.605	-115.69
1098.849	-38.69
1099.094	-114.69
1099.338	-199.69
1099.583	-107.69
1099.827	116.31
1100.072	27.31
1100.316	-164.69
1100.561	-112.69
1100.805	63.31
1101.05	27.31
1101.294	-175.69
1101.539	-168.69
1101.783	-1.69
1102.028	-4.69
1102.273	-149.69
1102.517	-82.69
1102.761	54.31
1103.006	-64.69
1103.25	-282.69
1103.495	-170.69
1103.739	41.31
1103.984	85.31
1104.228	-107.69
1104.473	-47.69
1104.717	31.31
1104.962	-2.69
1105.206	-115.69
1105.451	-148.69
1105.695	1.31
1105.94	-22.69
1106.184	-165.69
1106.429	-105.69
1106.673	10.31
1106.917	67.31
1107.162	-172.69
1107.406	-33.69
1107.651	127.31
1107.895	-87.69
1108.14	-191.69
1108.384	-91.69
1108.628	123.31
1108.873	119.31
1109.117	-143.69
1109.362	-137.69
1109.606	-30.69
1109.85	-32.69
1110.095	-171.69
1110.339	-104.69
1110.584	88.31
1110.828	33.31
1111.072	-122.69
1111.317	-137.69
1111.561	-17.69
1111.806	-28.69
1112.05	-180.69
1112.294	-82.69
1112.539	11.31
1112.783	-15.69
1113.027	-137.69
1113.272	-142.69
1113.516	-39.69
1113.76	-57.69
1114.005	-163.69
1114.249	-98.69
1114.493	68.31
1114.738	91.31
1114.982	-51.69
1115.226	-80.69
1115.471	3.31
1115.715	-29.69
1115.959	-194.69
1116.204	-168.69
1116.448	-11.69
1116.692	-101.69
1116.937	-181.69
1117.181	-15.69
1117.425	-15.69
1117.67	-87.69
1117.914	-151.69
1118.158	-104.69
1118.402	116.31
1118.647	54.31
1118.891	-102.69
1119.135	-50.69
1119.38	105.31
1119.624	8.31
1119.868	-140.69
1120.112	-157.69
1120.357	-62.69
1120.601	-125.69
1120.845	-228.69
1121.089	-155.69
1121.334	23.31
