Data from HR4C21111__29__09-59-15-649.txt Node

Date: Mon Feb 22 09:59:15 IST 2021
User: Kapil
Spectrometer: HR4C2111
Trigger mode: 4
Integration Time (sec): 2.300000E0
Scans to average: 1
Electric dark correction enabled: true
Nonlinearity correction enabled: false
Boxcar width: 0
XAxis mode: Wavelengths
Number of Pixels in Spectrum: 3648
>>>>>Begin Spectral Data<<<<<
189.472	-469.69
189.745	-469.69
190.017	-469.69
190.289	-458.69
190.561	-295.69
190.834	-6.69
191.106	-108.69
191.378	23.31
191.65	3.31
191.923	-147.69
192.195	-114.69
192.467	126.31
192.739	116.31
193.011	-15.69
193.284	81.31
193.556	167.31
193.828	-19.69
194.1	-104.69
194.372	-110.69
194.644	60.31
194.916	82.31
195.188	-154.69
195.46	-81.69
195.732	47.31
196.004	-16.69
196.276	-107.69
196.548	-48.69
196.82	82.31
197.092	65.31
197.364	-118.69
197.636	-85.69
197.908	16.31
198.18	-56.69
198.452	-83.69
198.724	-32.69
198.996	62.31
199.268	86.31
199.54	-13.69
199.811	-100.69
200.083	97.31
200.355	10.31
200.627	-204.69
200.899	-74.69
201.171	56.31
201.442	-55.69
201.714	-189.69
201.986	-96.69
202.258	73.31
202.529	130.31
202.801	18.31
203.073	84.31
203.345	203.31
203.616	9.31
203.888	-136.69
204.16	-150.69
204.431	62.31
204.703	-5.69
204.974	-132.69
205.246	-15.69
205.518	165.31
205.789	-1.69
206.061	-125.69
206.332	-98.69
206.604	19.31
206.876	113.31
207.147	131.31
207.419	14.31
207.69	134.31
207.962	-34.69
208.233	-185.69
208.505	9.31
208.776	188.31
209.047	90.31
209.319	-133.69
209.59	-82.69
209.862	99.31
210.133	-30.69
210.404	-147.69
210.676	-103.69
210.947	75.31
211.219	61.31
211.49	-131.69
211.761	-53.69
212.033	34.31
212.304	-24.69
212.575	-170.69
212.846	-85.69
213.118	32.31
213.389	-43.69
213.66	-92.69
213.931	-18.69
214.203	35.31
214.474	-25.69
214.745	-122.69
215.016	138.31
215.287	442.31
215.559	77.31
215.83	-110.69
216.101	-77.69
216.372	15.31
216.643	96.31
216.914	37.31
217.185	-57.69
217.456	165.31
217.727	25.31
217.998	-157.69
218.269	-53.69
218.54	48.31
218.811	-2.69
219.082	-98.69
219.353	-68.69
219.624	-9.69
219.895	-23.69
220.166	-125.69
220.437	-99.69
220.708	111.31
220.979	9.31
221.25	-124.69
221.521	-97.69
221.792	41.31
222.063	89.31
222.334	31.31
222.604	179.31
222.875	195.31
223.146	105.31
223.417	-168.69
223.688	-24.69
223.958	136.31
224.229	-54.69
224.5	-188.69
224.771	-79.69
225.041	84.31
225.312	62.31
225.583	-108.69
225.854	-54.69
226.124	99.31
226.395	-3.69
226.666	-121.69
226.936	-84.69
227.207	64.31
227.478	-29.69
227.748	-91.69
228.019	55.31
228.289	241.31
228.56	-44.69
228.831	-39.69
229.101	52.31
229.372	64.31
229.642	-29.69
229.913	-163.69
230.183	-118.69
230.454	10.31
230.724	17.31
230.995	-104.69
231.265	-76.69
231.536	67.31
231.806	55.31
232.076	-86.69
232.347	-110.69
232.617	18.31
232.888	21.31
233.158	-51.69
233.428	-110.69
233.699	2.31
233.969	-31.69
234.239	-150.69
234.51	-90.69
234.78	55.31
235.05	-3.69
235.321	-113.69
235.591	-66.69
235.861	69.31
236.131	-49.69
236.402	-186.69
236.672	-90.69
236.942	54.31
237.212	61.31
237.483	-34.69
237.753	27.31
238.023	170.31
238.293	38.31
238.563	-67.69
238.833	-92.69
239.103	78.31
239.374	-17.69
239.644	-126.69
239.914	-29.69
240.184	125.31
240.454	-14.69
240.724	-169.69
240.994	-62.69
241.264	20.31
241.534	58.31
241.804	-22.69
242.074	-84.69
242.344	-31.69
242.614	-45.69
242.884	-169.69
243.154	-128.69
243.424	39.31
243.694	55.31
243.964	-104.69
244.234	-68.69
244.503	134.31
244.773	7.31
245.043	-210.69
245.313	-118.69
245.583	131.31
245.853	98.31
246.123	-155.69
246.392	-94.69
246.662	-1.69
246.932	-22.69
247.202	-167.69
247.471	-59.69
247.741	269.31
248.011	104.31
248.281	-140.69
248.55	-94.69
248.82	57.31
249.09	0.31
249.359	-77.69
249.629	-78.69
249.899	52.31
250.168	70.31
250.438	-22.69
250.708	-101.69
250.977	101.31
251.247	77.31
251.516	-103.69
251.786	-59.69
252.055	122.31
252.325	20.31
252.595	-98.69
252.864	-49.69
253.134	64.31
253.403	-17.69
253.673	-160.69
253.942	-102.69
254.212	35.31
254.481	-2.69
254.75	-130.69
255.02	-83.69
255.289	80.31
255.559	-4.69
255.828	-116.69
256.097	-24.69
256.367	32.31
256.636	-52.69
256.906	-118.69
257.175	-9.69
257.444	249.31
257.714	66.31
257.983	-72.69
258.252	-33.69
258.521	30.31
258.791	63.31
259.06	-102.69
259.329	-38.69
259.598	66.31
259.868	3.31
260.137	-100.69
260.406	12.31
260.675	95.31
260.944	41.31
261.214	-122.69
261.483	-42.69
261.752	191.31
262.021	16.31
262.29	-161.69
262.559	-126.69
262.828	18.31
263.097	-31.69
263.366	-190.69
263.635	-69.69
263.905	142.31
264.174	21.31
264.443	-212.69
264.712	-104.69
264.981	49.31
265.25	-46.69
265.519	-146.69
265.788	-145.69
266.057	44.31
266.325	83.31
266.594	-33.69
266.863	-104.69
267.132	25.31
267.401	-5.69
267.67	-196.69
267.939	-130.69
268.208	50.31
268.477	78.31
268.745	-113.69
269.014	-85.69
269.283	146.31
269.552	42.31
269.821	-116.69
270.089	-0.69
270.358	23.31
270.627	-4.69
270.896	-124.69
271.164	-137.69
271.433	41.31
271.702	107.31
271.971	-142.69
272.239	-127.69
272.508	34.31
272.777	-36.69
273.045	-21.69
273.314	-21.69
273.583	109.31
273.851	-3.69
274.12	-149.69
274.388	-129.69
274.657	18.31
274.926	13.31
275.194	-149.69
275.463	-67.69
275.731	21.31
276	193.31
276.268	401.31
276.537	-66.69
276.805	24.31
277.074	38.31
277.342	-162.69
277.611	-99.69
277.879	109.31
278.148	32.31
278.416	-142.69
278.684	-113.69
278.953	-6.69
279.221	-11.69
279.49	-185.69
279.758	-103.69
280.026	5.31
280.295	11.31
280.563	-103.69
280.831	1028.31
281.1	2471.31
281.368	247.31
281.636	-82.69
281.904	-98.69
282.173	6.31
282.441	-50.69
282.709	-81.69
282.977	34.31
283.246	73.31
283.514	-12.69
283.782	-53.69
284.05	42.31
284.318	75.31
284.587	-11.69
284.855	-115.69
285.123	-32.69
285.391	62.31
285.659	43.31
285.927	-139.69
286.195	-67.69
286.463	62.31
286.732	0.31
287	-98.69
287.268	-52.69
287.536	36.31
287.804	-32.69
288.072	-116.69
288.34	-58.69
288.608	90.31
288.876	-26.69
289.144	-135.69
289.412	-13.69
289.68	44.31
289.948	-23.69
290.215	-105.69
290.483	-90.69
290.751	103.31
291.019	102.31
291.287	-141.69
291.555	-88.69
291.823	42.31
292.091	-3.69
292.358	-76.69
292.626	-14.69
292.894	105.31
293.162	63.31
293.43	-104.69
293.697	-73.69
293.965	52.31
294.233	-27.69
294.501	-161.69
294.768	-65.69
295.036	72.31
295.304	32.31
295.572	-129.69
295.839	-95.69
296.107	123.31
296.375	19.31
296.642	-122.69
296.91	-115.69
297.178	54.31
297.445	170.31
297.713	109.31
297.98	-59.69
298.248	-12.69
298.516	-26.69
298.783	-116.69
299.051	-110.69
299.318	21.31
299.586	-26.69
299.853	-75.69
300.121	-79.69
300.388	47.31
300.656	-1.69
300.923	-146.69
301.191	-36.69
301.458	63.31
301.726	-0.69
301.993	-138.69
302.26	-69.69
302.528	69.31
302.795	2.31
303.063	-81.69
303.33	-68.69
303.597	21.31
303.865	27.31
304.132	-124.69
304.399	-127.69
304.667	-13.69
304.934	24.31
305.201	-99.69
305.469	-5.69
305.736	76.31
306.003	52.31
306.27	-42.69
306.538	-77.69
306.805	3.31
307.072	-19.69
307.339	-63.69
307.606	-42.69
307.874	172.31
308.141	90.31
308.408	-119.69
308.675	-104.69
308.942	-40.69
309.209	-65.69
309.477	-124.69
309.744	-95.69
310.011	33.31
310.278	47.31
310.545	2.31
310.812	-42.69
311.079	146.31
311.346	213.31
311.613	77.31
311.88	-19.69
312.147	-60.69
312.414	-25.69
312.681	-93.69
312.948	-13.69
313.215	124.31
313.482	90.31
313.749	-106.69
314.016	-189.69
314.283	-46.69
314.55	60.31
314.817	-90.69
315.083	-111.69
315.35	-64.69
315.617	-112.69
315.884	-127.69
316.151	66.31
316.418	161.31
316.684	-14.69
316.951	-181.69
317.218	-93.69
317.485	-7.69
317.752	-64.69
318.018	-119.69
318.285	1.31
318.552	26.31
318.819	-51.69
319.085	-122.69
319.352	-30.69
319.619	57.31
319.885	-24.69
320.152	-192.69
320.419	-95.69
320.685	43.31
320.952	-20.69
321.219	-67.69
321.485	89.31
321.752	38.31
322.019	-34.69
322.285	45.31
322.552	3.31
322.818	131.31
323.085	-18.69
323.351	-124.69
323.618	-12.69
323.884	49.31
324.151	-55.69
324.417	-23.69
324.684	-68.69
324.95	-38.69
325.217	-117.69
325.483	-162.69
325.75	-19.69
326.016	10.31
326.283	-2.69
326.549	-171.69
326.815	-62.69
327.082	112.31
327.348	22.31
327.615	-96.69
327.881	-18.69
328.147	127.31
328.414	128.31
328.68	25.31
328.946	-15.69
329.212	29.31
329.479	6.31
329.745	-107.69
330.011	-106.69
330.278	16.31
330.544	-28.69
330.81	-24.69
331.076	-33.69
331.342	-29.69
331.609	-26.69
331.875	-77.69
332.141	-85.69
332.407	27.31
332.673	3.31
332.94	-1.69
333.206	-36.69
333.472	55.31
333.738	84.31
334.004	-98.69
334.27	-4.69
334.536	11.31
334.802	-29.69
335.068	-78.69
335.334	17.31
335.6	45.31
335.866	-14.69
336.132	-158.69
336.398	-73.69
336.664	-12.69
336.93	-22.69
337.196	-71.69
337.462	0.31
337.728	55.31
337.994	-14.69
338.26	-62.69
338.526	-24.69
338.792	-29.69
339.058	-32.69
339.324	-124.69
339.59	-1.69
339.856	76.31
340.121	-29.69
340.387	-94.69
340.653	116.31
340.919	169.31
341.185	79.31
341.45	-37.69
341.716	68.31
341.982	133.31
342.248	-50.69
342.514	-69.69
342.779	29.31
343.045	54.31
343.311	4.31
343.576	-70.69
343.842	-18.69
344.108	156.31
344.374	41.31
344.639	-80.69
344.905	-71.69
345.171	63.31
345.436	-42.69
345.702	-79.69
345.967	80.31
346.233	107.31
346.499	42.31
346.764	-160.69
347.03	-53.69
347.295	-11.69
347.561	31.31
347.826	-11.69
348.092	-62.69
348.357	9.31
348.623	-13.69
348.888	-99.69
349.154	-53.69
349.419	90.31
349.685	45.31
349.95	-23.69
350.216	0.31
350.481	84.31
350.747	-0.69
351.012	-129.69
351.277	-47.69
351.543	92.31
351.808	30.31
352.074	-119.69
352.339	-69.69
352.604	90.31
352.87	66.31
353.135	-50.69
353.4	-9.69
353.666	51.31
353.931	51.31
354.196	-90.69
354.461	-68.69
354.727	94.31
354.992	69.31
355.257	-76.69
355.522	24.31
355.788	76.31
356.053	147.31
356.318	-13.69
356.583	-34.69
356.848	160.31
357.113	273.31
357.379	30.31
357.644	-4.69
357.909	187.31
358.174	213.31
358.439	-40.69
358.704	48.31
358.969	179.31
359.234	188.31
359.499	16.31
359.765	70.31
360.03	191.31
360.295	203.31
360.56	26.31
360.825	96.31
361.09	312.31
361.355	129.31
361.62	79.31
361.885	128.31
362.15	114.31
362.415	164.31
362.679	99.31
362.944	237.31
363.209	258.31
363.474	298.31
363.739	230.31
364.004	126.31
364.269	210.31
364.534	235.31
364.799	201.31
365.063	216.31
365.328	335.31
365.593	355.31
365.858	215.31
366.123	213.31
366.387	378.31
366.652	292.31
366.917	181.31
367.182	261.31
367.447	409.31
367.711	367.31
367.976	301.31
368.241	378.31
368.505	442.31
368.77	335.31
369.035	346.31
369.299	405.31
369.564	449.31
369.829	364.31
370.093	342.31
370.358	353.31
370.623	472.31
370.887	483.31
371.152	362.31
371.416	436.31
371.681	476.31
371.946	403.31
372.21	382.31
372.475	507.31
372.739	553.31
373.004	509.31
373.268	464.31
373.533	555.31
373.797	616.31
374.062	622.31
374.326	477.31
374.591	564.31
374.855	676.31
375.12	610.31
375.384	470.31
375.648	565.31
375.913	718.31
376.177	733.31
376.442	608.31
376.706	632.31
376.97	782.31
377.235	739.31
377.499	739.31
377.763	766.31
378.028	741.31
378.292	803.31
378.556	769.31
378.821	711.31
379.085	806.31
379.349	768.31
379.614	724.31
379.878	841.31
380.142	1008.31
380.406	961.31
380.671	979.31
380.935	1115.31
381.199	1233.31
381.463	1146.31
381.727	1092.31
381.991	1063.31
382.256	1166.31
382.52	1108.31
382.784	1104.31
383.048	1285.31
383.312	1227.31
383.576	1184.31
383.84	1124.31
384.104	1196.31
384.369	1306.31
384.633	1230.31
384.897	1147.31
385.161	1294.31
385.425	1425.31
385.689	1371.31
385.953	1331.31
386.217	1354.31
386.481	1459.31
386.745	1511.31
387.009	1476.31
387.273	1450.31
387.537	1522.31
387.801	1567.31
388.064	1515.31
388.328	1651.31
388.592	1747.31
388.856	1702.31
389.12	1616.31
389.384	1683.31
389.648	1749.31
389.912	1822.31
390.176	1869.31
390.439	1974.31
390.703	1830.31
390.967	1827.31
391.231	1733.31
391.495	1826.31
391.758	1936.31
392.022	1978.31
392.286	1843.31
392.55	1901.31
392.813	2040.31
393.077	2089.31
393.341	2044.31
393.605	2146.31
393.868	2140.31
394.132	2115.31
394.396	2084.31
394.659	2247.31
394.923	2229.31
395.187	2196.31
395.45	2206.31
395.714	2250.31
395.978	2274.31
396.241	2315.31
396.505	2284.31
396.768	2394.31
397.032	2459.31
397.295	2438.31
397.559	2392.31
397.823	2354.31
398.086	2526.31
398.35	2479.31
398.613	2404.31
398.877	2498.31
399.14	2679.31
399.404	2765.31
399.667	2699.31
399.931	2614.31
400.194	2674.31
400.457	2720.31
400.721	2721.31
400.984	2847.31
401.248	2804.31
401.511	2771.31
401.775	2664.31
402.038	2724.31
402.301	2962.31
402.565	2984.31
402.828	2808.31
403.091	2906.31
403.355	3117.31
403.618	3069.31
403.881	3027.31
404.145	3084.31
404.408	3144.31
404.671	3095.31
404.934	3147.31
405.198	3219.31
405.461	3236.31
405.724	3296.31
405.987	3300.31
406.251	3345.31
406.514	3481.31
406.777	3343.31
407.04	3267.31
407.303	3279.31
407.567	3403.31
407.83	3517.31
408.093	3354.31
408.356	3465.31
408.619	3551.31
408.882	3618.31
409.145	3590.31
409.408	3521.31
409.672	3630.31
409.935	3541.31
410.198	3402.31
410.461	3531.31
410.724	3804.31
410.987	3763.31
411.25	3559.31
411.513	3714.31
411.776	3779.31
412.039	3657.31
412.302	3637.31
412.565	3709.31
412.828	3735.31
413.091	3756.31
413.354	3672.31
413.617	3655.31
413.879	3700.31
414.142	3725.31
414.405	3547.31
414.668	3573.31
414.931	3725.31
415.194	3723.31
415.457	3558.31
415.72	3616.31
415.983	3649.31
416.245	3722.31
416.508	3621.31
416.771	3526.31
417.034	3680.31
417.297	3651.31
417.559	3643.31
417.822	3613.31
418.085	3718.31
418.348	3704.31
418.61	3606.31
418.873	3577.31
419.136	3618.31
419.399	3603.31
419.661	3662.31
419.924	3628.31
420.187	3743.31
420.449	3729.31
420.712	3659.31
420.975	3663.31
421.237	3761.31
421.5	3797.31
421.762	3798.31
422.025	3780.31
422.288	3927.31
422.55	3779.31
422.813	3703.31
423.075	3814.31
423.338	3898.31
423.601	3962.31
423.863	3922.31
424.126	3940.31
424.388	4066.31
424.651	3995.31
424.913	3990.31
425.176	4025.31
425.438	4049.31
425.701	4039.31
425.963	3901.31
426.225	3942.31
426.488	3997.31
426.75	4028.31
427.013	4078.31
427.275	4131.31
427.538	4093.31
427.8	4113.31
428.062	4059.31
428.325	4130.31
428.587	4181.31
428.849	4197.31
429.112	4196.31
429.374	4141.31
429.636	4133.31
429.899	4261.31
430.161	4160.31
430.423	4229.31
430.686	4390.31
430.948	4385.31
431.21	4227.31
431.472	4177.31
431.735	4328.31
431.997	4339.31
432.259	4290.31
432.521	4170.31
432.783	4310.31
433.046	4308.31
433.308	4231.31
433.57	4271.31
433.832	4520.31
434.094	4329.31
434.356	4201.31
434.618	4338.31
434.881	4407.31
435.143	4489.31
435.405	4479.31
435.667	4402.31
435.929	4411.31
436.191	4423.31
436.453	4357.31
436.715	4468.31
436.977	4602.31
437.239	4680.31
437.501	4565.31
437.763	4563.31
438.025	4626.31
438.287	4603.31
438.549	4578.31
438.811	4510.31
439.073	4508.31
439.335	4563.31
439.597	4500.31
439.859	4487.31
440.121	4642.31
440.383	4577.31
440.645	4562.31
440.907	4614.31
441.168	4659.31
441.43	4598.31
441.692	4596.31
441.954	4683.31
442.216	4721.31
442.478	4648.31
442.74	4549.31
443.001	4673.31
443.263	4796.31
443.525	4654.31
443.787	4507.31
444.048	4512.31
444.31	4554.31
444.572	4615.31
444.834	4590.31
445.095	4612.31
445.357	4814.31
445.619	4609.31
445.881	4470.31
446.142	4580.31
446.404	4557.31
446.666	4613.31
446.927	4627.31
447.189	4747.31
447.451	4826.31
447.712	4624.31
447.974	4449.31
448.235	4486.31
448.497	4585.31
448.759	4546.31
449.02	4531.31
449.282	4493.31
449.543	4620.31
449.805	4687.31
450.066	4436.31
450.328	4601.31
450.59	4806.31
450.851	4602.31
451.113	4465.31
451.374	4439.31
451.636	4698.31
451.897	4710.31
452.158	4614.31
452.42	4693.31
452.681	4736.31
452.943	4555.31
453.204	4532.31
453.466	4533.31
453.727	4547.31
453.988	4621.31
454.25	4529.31
454.511	4558.31
454.773	4615.31
455.034	4777.31
455.295	4504.31
455.557	4689.31
455.818	4711.31
456.079	4646.31
456.341	4794.31
456.602	4851.31
456.863	4839.31
457.124	4654.31
457.386	4530.31
457.647	4535.31
457.908	4643.31
458.169	4765.31
458.431	4631.31
458.692	4725.31
458.953	4736.31
459.214	4732.31
459.476	4900.31
459.737	5046.31
459.998	4992.31
460.259	4853.31
460.52	4818.31
460.781	4991.31
461.043	5212.31
461.304	5062.31
461.565	4853.31
461.826	4903.31
462.087	5083.31
462.348	5232.31
462.609	5215.31
462.87	5138.31
463.131	5061.31
463.392	5323.31
463.653	5346.31
463.914	5312.31
464.175	5267.31
464.436	5384.31
464.697	5420.31
464.958	5239.31
465.219	5233.31
465.48	5396.31
465.741	5426.31
466.002	5295.31
466.263	5492.31
466.524	5563.31
466.785	5403.31
467.046	5504.31
467.307	5708.31
467.568	5742.31
467.829	5682.31
468.089	5664.31
468.35	5732.31
468.611	5684.31
468.872	5632.31
469.133	5855.31
469.394	6045.31
469.655	6156.31
469.915	5970.31
470.176	5808.31
470.437	5913.31
470.698	6085.31
470.958	6137.31
471.219	6154.31
471.48	6259.31
471.741	6477.31
472.001	6432.31
472.262	6385.31
472.523	6589.31
472.784	6703.31
473.044	6567.31
473.305	6665.31
473.566	6738.31
473.826	6843.31
474.087	6781.31
474.348	6886.31
474.608	7037.31
474.869	6985.31
475.129	6879.31
475.39	7014.31
475.651	7159.31
475.911	7362.31
476.172	7286.31
476.432	7413.31
476.693	7656.31
476.953	7486.31
477.214	7453.31
477.475	7553.31
477.735	7556.31
477.996	7681.31
478.256	7606.31
478.517	7719.31
478.777	7927.31
479.038	8028.31
479.298	8074.31
479.558	8117.31
479.819	8174.31
480.079	8174.31
480.34	8275.31
480.6	8290.31
480.861	8383.31
481.121	8472.31
481.381	8413.31
481.642	8487.31
481.902	8554.31
482.162	8589.31
482.423	8561.31
482.683	8705.31
482.943	8844.31
483.204	8835.31
483.464	8802.31
483.724	8806.31
483.985	8890.31
484.245	9028.31
484.505	9066.31
484.765	9167.31
485.026	9231.31
485.286	9296.31
485.546	9295.31
485.806	9321.31
486.067	9343.31
486.327	9265.31
486.587	9324.31
486.847	9426.31
487.107	9524.31
487.368	9554.31
487.628	9521.31
487.888	9629.31
488.148	9785.31
488.408	9635.31
488.668	9711.31
488.928	9694.31
489.188	9678.31
489.449	9765.31
489.709	9681.31
489.969	9763.31
490.229	9924.31
490.489	9957.31
490.749	9861.31
491.009	9734.31
491.269	9826.31
491.529	9833.31
491.789	9836.31
492.049	9981.31
492.309	10133.31
492.569	10027.31
492.829	10030.31
493.089	10021.31
493.349	10208.31
493.609	10128.31
493.869	10018.31
494.129	10135.31
494.389	10181.31
494.648	10070.31
494.908	10009.31
495.168	10081.31
495.428	10165.31
495.688	10139.31
495.948	10006.31
496.208	10007.31
496.467	10106.31
496.727	10156.31
496.987	10140.31
497.247	10156.31
497.507	10278.31
497.767	10342.31
498.026	10187.31
498.286	10306.31
498.546	10388.31
498.806	10292.31
499.065	10371.31
499.325	10254.31
499.585	10274.31
499.845	10279.31
500.104	10279.31
500.364	10348.31
500.624	10372.31
500.883	10279.31
501.143	10321.31
501.403	10379.31
501.662	10463.31
501.922	10365.31
502.182	10172.31
502.441	10140.31
502.701	10223.31
502.96	10413.31
503.22	10354.31
503.48	10302.31
503.739	10290.31
503.999	10298.31
504.258	10236.31
504.518	10341.31
504.777	10413.31
505.037	10360.31
505.296	10352.31
505.556	10308.31
505.815	10482.31
506.075	10521.31
506.334	10432.31
506.594	10264.31
506.853	10285.31
507.113	10279.31
507.372	10197.31
507.632	10277.31
507.891	10306.31
508.151	10314.31
508.41	10201.31
508.669	10235.31
508.929	10343.31
509.188	10298.31
509.447	10299.31
509.707	10238.31
509.966	10294.31
510.226	10366.31
510.485	10347.31
510.744	10352.31
511.004	10372.31
511.263	10318.31
511.522	10243.31
511.781	10208.31
512.041	10358.31
512.3	10381.31
512.559	10429.31
512.818	10490.31
513.078	10496.31
513.337	10391.31
513.596	10316.31
513.855	10361.31
514.115	10419.31
514.374	10407.31
514.633	10302.31
514.892	10268.31
515.151	10470.31
515.41	10513.31
515.67	10379.31
515.929	10373.31
516.188	10455.31
516.447	10379.31
516.706	10325.31
516.965	10406.31
517.224	10467.31
517.483	10439.31
517.743	10323.31
518.002	10399.31
518.261	10463.31
518.52	10476.31
518.779	10431.31
519.038	10401.31
519.297	10468.31
519.556	10466.31
519.815	10385.31
520.074	10413.31
520.333	10553.31
520.592	10546.31
520.851	10457.31
521.11	10579.31
521.369	10673.31
521.628	10539.31
521.887	10443.31
522.145	10491.31
522.404	10479.31
522.663	10416.31
522.922	10336.31
523.181	10359.31
523.44	10508.31
523.699	10531.31
523.958	10332.31
524.217	10353.31
524.475	10401.31
524.734	10460.31
524.993	10401.31
525.252	10397.31
525.511	10480.31
525.769	10469.31
526.028	10345.31
526.287	10442.31
526.546	10542.31
526.805	10421.31
527.063	10348.31
527.322	10352.31
527.581	10424.31
527.839	10381.31
528.098	10407.31
528.357	10426.31
528.616	10394.31
528.874	10435.31
529.133	10354.31
529.392	10438.31
529.65	10404.31
529.909	10341.31
530.168	10282.31
530.426	10282.31
530.685	10414.31
530.943	10409.31
531.202	10313.31
531.461	10347.31
531.719	10491.31
531.978	10378.31
532.236	10299.31
532.495	10353.31
532.753	10430.31
533.012	10353.31
533.271	10317.31
533.529	10289.31
533.788	10386.31
534.046	10350.31
534.305	10271.31
534.563	10487.31
534.822	10650.31
535.08	10484.31
535.338	10331.31
535.597	10399.31
535.855	10493.31
536.114	10407.31
536.372	10352.31
536.631	10503.31
536.889	10506.31
537.147	10453.31
537.406	10306.31
537.664	10434.31
537.923	10559.31
538.181	10522.31
538.439	10361.31
538.698	10511.31
538.956	10529.31
539.214	10538.31
539.473	10453.31
539.731	10511.31
539.989	10650.31
540.248	10572.31
540.506	10603.31
540.764	10586.31
541.022	10621.31
541.281	10723.31
541.539	10631.31
541.797	10570.31
542.055	10718.31
542.314	10842.31
542.572	10799.31
542.83	10689.31
543.088	10806.31
543.346	10717.31
543.604	10658.31
543.863	10767.31
544.121	10932.31
544.379	10905.31
544.637	10840.31
544.895	11011.31
545.153	11088.31
545.411	10917.31
545.67	10851.31
545.928	11008.31
546.186	11106.31
546.444	11153.31
546.702	11093.31
546.96	11225.31
547.218	11303.31
547.476	11245.31
547.734	11152.31
547.992	11256.31
548.25	11449.31
548.508	11312.31
548.766	11326.31
549.024	11384.31
549.282	11410.31
549.54	11544.31
549.798	11516.31
550.056	11522.31
550.314	11671.31
550.572	11638.31
550.83	11560.31
551.088	11668.31
551.346	11849.31
551.603	11838.31
551.861	11763.31
552.119	11898.31
552.377	11973.31
552.635	11936.31
552.893	11818.31
553.151	11887.31
553.409	12089.31
553.666	12074.31
553.924	12037.31
554.182	12058.31
554.44	12182.31
554.698	12282.31
554.955	12195.31
555.213	12169.31
555.471	12311.31
555.729	12275.31
555.986	12077.31
556.244	12264.31
556.502	12514.31
556.76	12405.31
557.017	12439.31
557.275	12530.31
557.533	12620.31
557.79	12577.31
558.048	12352.31
558.306	12461.31
558.563	12584.31
558.821	12546.31
559.079	12577.31
559.336	12639.31
559.594	12656.31
559.852	12660.31
560.109	12580.31
560.367	12707.31
560.624	12760.31
560.882	12741.31
561.14	12713.31
561.397	12821.31
561.655	12772.31
561.912	12794.31
562.17	12673.31
562.427	12766.31
562.685	12875.31
562.942	12843.31
563.2	12802.31
563.457	12847.31
563.715	12861.31
563.972	12947.31
564.23	12785.31
564.487	12751.31
564.745	12835.31
565.002	12857.31
565.26	12724.31
565.517	12720.31
565.774	12802.31
566.032	12859.31
566.289	12780.31
566.547	12852.31
566.804	12912.31
567.061	12800.31
567.319	12710.31
567.576	12825.31
567.833	12893.31
568.091	12876.31
568.348	12741.31
568.605	12805.31
568.863	12820.31
569.12	12723.31
569.377	12707.31
569.635	12688.31
569.892	12691.31
570.149	12629.31
570.406	12521.31
570.664	12599.31
570.921	12675.31
571.178	12550.31
571.435	12563.31
571.693	12591.31
571.95	12609.31
572.207	12542.31
572.464	12452.31
572.721	12491.31
572.979	12552.31
573.236	12451.31
573.493	12304.31
573.75	12269.31
574.007	12343.31
574.264	12250.31
574.521	12170.31
574.779	12097.31
575.036	12155.31
575.293	12087.31
575.55	11993.31
575.807	12023.31
576.064	12103.31
576.321	12070.31
576.578	11848.31
576.835	11790.31
577.092	11987.31
577.349	11829.31
577.606	11571.31
577.863	11556.31
578.12	11685.31
578.377	11657.31
578.634	11441.31
578.891	11445.31
579.148	11529.31
579.405	11426.31
579.662	11247.31
579.919	11276.31
580.176	11231.31
580.433	11218.31
580.69	11137.31
580.947	11059.31
581.204	11106.31
581.461	10922.31
581.717	10791.31
581.974	10911.31
582.231	10933.31
582.488	10779.31
582.745	10467.31
583.002	10500.31
583.259	10701.31
583.515	10626.31
583.772	10334.31
584.029	10402.31
584.286	10479.31
584.543	10225.31
584.799	10218.31
585.056	10260.31
585.313	10214.31
585.57	10110.31
585.826	9917.31
586.083	10000.31
586.34	10140.31
586.597	9877.31
586.853	9700.31
587.11	9742.31
587.367	9879.31
587.623	9883.31
587.88	9741.31
588.137	9529.31
588.393	9576.31
588.65	9536.31
588.907	9360.31
589.163	9393.31
589.42	9465.31
589.677	9388.31
589.933	9275.31
590.19	9331.31
590.446	9358.31
590.703	9291.31
590.96	9068.31
591.216	9058.31
591.473	9087.31
591.729	9051.31
591.986	9015.31
592.242	9086.31
592.499	9175.31
592.755	8988.31
593.012	8845.31
593.268	8893.31
593.525	8866.31
593.781	8947.31
594.038	8794.31
594.294	8780.31
594.551	8816.31
594.807	8785.31
595.064	8746.31
595.32	8716.31
595.576	8778.31
595.833	8748.31
596.089	8573.31
596.346	8735.31
596.602	8765.31
596.858	8792.31
597.115	8647.31
597.371	8653.31
597.628	8648.31
597.884	8530.31
598.14	8459.31
598.397	8631.31
598.653	8611.31
598.909	8496.31
599.166	8424.31
599.422	8451.31
599.678	8518.31
599.934	8474.31
600.191	8353.31
600.447	8375.31
600.703	8445.31
600.959	8407.31
601.216	8283.31
601.472	8334.31
601.728	8375.31
601.984	8288.31
602.241	8249.31
602.497	8374.31
602.753	8501.31
603.009	8388.31
603.265	8275.31
603.521	8338.31
603.778	8436.31
604.034	8282.31
604.29	8176.31
604.546	8262.31
604.802	8391.31
605.058	8306.31
605.314	8238.31
605.571	8301.31
605.827	8316.31
606.083	8236.31
606.339	8163.31
606.595	8330.31
606.851	8415.31
607.107	8337.31
607.363	8138.31
607.619	8209.31
607.875	8389.31
608.131	8342.31
608.387	8014.31
608.643	8060.31
608.899	8160.31
609.155	8169.31
609.411	8099.31
609.667	8123.31
609.923	8145.31
610.179	8164.31
610.435	8002.31
610.691	8066.31
610.947	8156.31
611.203	8038.31
611.459	8025.31
611.714	8059.31
611.97	8169.31
612.226	8069.31
612.482	7894.31
612.738	8007.31
612.994	8229.31
613.25	8029.31
613.505	7882.31
613.761	7934.31
614.017	7999.31
614.273	7961.31
614.529	7873.31
614.785	7810.31
615.04	7876.31
615.296	7851.31
615.552	7796.31
615.808	7842.31
616.063	7890.31
616.319	7868.31
616.575	7697.31
616.831	7803.31
617.086	7983.31
617.342	7896.31
617.598	7756.31
617.854	7727.31
618.109	7815.31
618.365	7643.31
618.621	7604.31
618.876	7689.31
619.132	7742.31
619.388	7646.31
619.643	7473.31
619.899	7552.31
620.155	7597.31
620.41	7634.31
620.666	7495.31
620.921	7498.31
621.177	7624.31
621.433	7683.31
621.688	7535.31
621.944	7417.31
622.199	7492.31
622.455	7494.31
622.71	7318.31
622.966	7306.31
623.221	7295.31
623.477	7309.31
623.732	7296.31
623.988	7224.31
624.243	7331.31
624.499	7305.31
624.754	7126.31
625.01	7174.31
625.265	7276.31
625.521	7373.31
625.776	7136.31
626.032	7142.31
626.287	7201.31
626.543	7155.31
626.798	7066.31
627.053	7076.31
627.309	7161.31
627.564	6997.31
627.82	6985.31
628.075	7031.31
628.33	6979.31
628.586	6866.31
628.841	6750.31
629.096	6876.31
629.352	6938.31
629.607	6831.31
629.862	6782.31
630.118	6839.31
630.373	6797.31
630.628	6815.31
630.884	6665.31
631.139	6714.31
631.394	6837.31
631.649	6802.31
631.905	6629.31
632.16	6701.31
632.415	6839.31
632.67	6657.31
632.926	6470.31
633.181	6492.31
633.436	6618.31
633.691	6585.31
633.946	6414.31
634.202	6419.31
634.457	6523.31
634.712	6445.31
634.967	6353.31
635.222	6313.31
635.477	6385.31
635.733	6375.31
635.988	6273.31
636.243	6253.31
636.498	6390.31
636.753	6349.31
637.008	6150.31
637.263	6206.31
637.518	6241.31
637.773	6185.31
638.028	6114.31
638.283	6124.31
638.539	6199.31
638.794	6143.31
639.049	5960.31
639.304	5978.31
639.559	6034.31
639.814	6012.31
640.069	5954.31
640.324	5948.31
640.579	6035.31
640.834	5981.31
641.089	5843.31
641.344	5912.31
641.598	6102.31
641.853	5955.31
642.108	5770.31
642.363	5729.31
642.618	5917.31
642.873	5776.31
643.128	5634.31
643.383	5704.31
643.638	5746.31
643.893	5772.31
644.148	5721.31
644.402	5604.31
644.657	5672.31
644.912	5667.31
645.167	5605.31
645.422	5680.31
645.677	5648.31
645.931	5608.31
646.186	5599.31
646.441	5525.31
646.696	5511.31
646.951	5542.31
647.205	5469.31
647.46	5430.31
647.715	5485.31
647.97	5647.31
648.224	5722.31
648.479	5497.31
648.734	5583.31
648.989	5522.31
649.243	5415.31
649.498	5360.31
649.753	5421.31
650.007	5449.31
650.262	5355.31
650.517	5349.31
650.771	5396.31
651.026	5344.31
651.281	5225.31
651.535	5291.31
651.79	5308.31
652.045	5283.31
652.299	5181.31
652.554	5189.31
652.809	5285.31
653.063	5426.31
653.318	5321.31
653.572	5194.31
653.827	5264.31
654.081	5179.31
654.336	5099.31
654.591	5096.31
654.845	5183.31
655.1	5153.31
655.354	5056.31
655.609	5125.31
655.863	5241.31
656.118	5222.31
656.372	5026.31
656.627	5067.31
656.881	5157.31
657.136	5096.31
657.39	4991.31
657.645	5147.31
657.899	5217.31
658.153	5098.31
658.408	5022.31
658.662	5063.31
658.917	5078.31
659.171	4944.31
659.426	4887.31
659.68	4978.31
659.934	5103.31
660.189	5067.31
660.443	4947.31
660.697	5127.31
660.952	5202.31
661.206	5029.31
661.46	4863.31
661.715	4901.31
661.969	5044.31
662.223	5083.31
662.478	4963.31
662.732	4996.31
662.986	5062.31
663.241	5082.31
663.495	4955.31
663.749	4965.31
664.003	5096.31
664.258	4982.31
664.512	4914.31
664.766	4995.31
665.02	5097.31
665.275	5105.31
665.529	4965.31
665.783	4960.31
666.037	5009.31
666.291	5005.31
666.546	4887.31
666.8	4953.31
667.054	4980.31
667.308	5025.31
667.562	4890.31
667.816	4954.31
668.071	5032.31
668.325	4967.31
668.579	4943.31
668.833	5057.31
669.087	5207.31
669.341	5051.31
669.595	4946.31
669.849	5029.31
670.103	5082.31
670.357	5097.31
670.612	5067.31
670.866	5033.31
671.12	5115.31
671.374	5115.31
671.628	5041.31
671.882	5009.31
672.136	5121.31
672.39	5125.31
672.644	4966.31
672.898	5132.31
673.152	5292.31
673.406	5258.31
673.66	5145.31
673.914	5179.31
674.168	5253.31
674.422	5162.31
674.675	5058.31
674.929	5145.31
675.183	5260.31
675.437	5239.31
675.691	5184.31
675.945	5263.31
676.199	5417.31
676.453	5246.31
676.707	5096.31
676.961	5162.31
677.214	5268.31
677.468	5285.31
677.722	5281.31
677.976	5242.31
678.23	5347.31
678.484	5348.31
678.737	5262.31
678.991	5300.31
679.245	5393.31
679.499	5375.31
679.753	5239.31
680.006	5335.31
680.26	5455.31
680.514	5410.31
680.768	5268.31
681.021	5422.31
681.275	5396.31
681.529	5387.31
681.783	5329.31
682.036	5402.31
682.29	5388.31
682.544	5388.31
682.797	5335.31
683.051	5350.31
683.305	5480.31
683.559	5506.31
683.812	5506.31
684.066	5557.31
684.32	5610.31
684.573	5501.31
684.827	5553.31
685.08	5587.31
685.334	5644.31
685.588	5532.31
685.841	5418.31
686.095	5563.31
686.348	5605.31
686.602	5582.31
686.856	5559.31
687.109	5538.31
687.363	5619.31
687.616	5589.31
687.87	5487.31
688.123	5513.31
688.377	5622.31
688.63	5664.31
688.884	5634.31
689.137	5702.31
689.391	5771.31
689.644	5642.31
689.898	5490.31
690.151	5553.31
690.405	5725.31
690.658	5642.31
690.912	5587.31
691.165	5645.31
691.419	5713.31
691.672	5702.31
691.926	5632.31
692.179	5612.31
692.432	5710.31
692.686	5692.31
692.939	5545.31
693.193	5601.31
693.446	5803.31
693.699	5774.31
693.953	5756.31
694.206	5761.31
694.459	5849.31
694.713	5882.31
694.966	5701.31
695.219	5683.31
695.473	5793.31
695.726	5721.31
695.979	5664.31
696.233	5743.31
696.486	5790.31
696.739	5776.31
696.992	5616.31
697.246	5734.31
697.499	5848.31
697.752	5647.31
698.006	5619.31
698.259	5765.31
698.512	5751.31
698.765	5686.31
699.018	5627.31
699.272	5733.31
699.525	5731.31
699.778	5646.31
700.031	5593.31
700.284	5607.31
700.538	5731.31
700.791	5693.31
701.044	5654.31
701.297	5649.31
701.55	5712.31
701.803	5661.31
702.056	5569.31
702.31	5592.31
702.563	5712.31
702.816	5641.31
703.069	5517.31
703.322	5565.31
703.575	5685.31
703.828	5755.31
704.081	5660.31
704.334	5651.31
704.587	5693.31
704.84	5605.31
705.093	5612.31
705.346	5704.31
705.599	5683.31
705.853	5686.31
706.106	5709.31
706.359	5932.31
706.612	5667.31
706.865	5717.31
707.118	5577.31
707.37	5646.31
707.623	5750.31
707.876	5697.31
708.129	5630.31
708.382	5718.31
708.635	5781.31
708.888	5619.31
709.141	5472.31
709.394	5603.31
709.647	5715.31
709.9	5603.31
710.153	5502.31
710.406	5617.31
710.658	5667.31
710.911	5574.31
711.164	5451.31
711.417	5451.31
711.67	5497.31
711.923	5566.31
712.176	5445.31
712.428	5443.31
712.681	5524.31
712.934	5547.31
713.187	5426.31
713.44	5411.31
713.692	5525.31
713.945	5399.31
714.198	5322.31
714.451	5303.31
714.704	5467.31
714.956	5470.31
715.209	5441.31
715.462	5381.31
715.715	5460.31
715.967	5405.31
716.22	5239.31
716.473	5251.31
716.725	5424.31
716.978	5394.31
717.231	5370.31
717.484	5377.31
717.736	5279.31
717.989	5210.31
718.242	5147.31
718.494	5226.31
718.747	5356.31
718.999	5244.31
719.252	5218.31
719.505	5251.31
719.757	5262.31
720.01	5214.31
720.263	5140.31
720.515	5191.31
720.768	5259.31
721.02	5205.31
721.273	5065.31
721.525	5057.31
721.778	5153.31
722.031	5211.31
722.283	5062.31
722.536	5082.31
722.788	5145.31
723.041	5066.31
723.293	4965.31
723.546	4919.31
723.798	5025.31
724.051	5114.31
724.303	5039.31
724.556	5049.31
724.808	5123.31
725.061	5064.31
725.313	4945.31
725.566	4958.31
725.818	4968.31
726.071	4959.31
726.323	4816.31
726.575	4871.31
726.828	5038.31
727.08	5055.31
727.333	4833.31
727.585	4858.31
727.837	4948.31
728.09	4917.31
728.342	4746.31
728.595	4824.31
728.847	4965.31
729.099	4750.31
729.352	4761.31
729.604	4763.31
729.856	4833.31
730.109	4804.31
730.361	4697.31
730.613	4783.31
730.866	4881.31
731.118	4727.31
731.37	4620.31
731.622	4617.31
731.875	4679.31
732.127	4744.31
732.379	4734.31
732.631	4750.31
732.884	4743.31
733.136	4678.31
733.388	4572.31
733.64	4607.31
733.893	4786.31
734.145	4677.31
734.397	4485.31
734.649	4496.31
734.901	4569.31
735.154	4479.31
735.406	4397.31
735.658	4473.31
735.91	4557.31
736.162	4491.31
736.414	4363.31
736.667	4467.31
736.919	4465.31
737.171	4316.31
737.423	4322.31
737.675	4358.31
737.927	4453.31
738.179	4453.31
738.431	4392.31
738.684	4291.31
738.936	4399.31
739.188	4435.31
739.44	4231.31
739.692	4225.31
739.944	4237.31
740.196	4298.31
740.448	4250.31
740.7	4237.31
740.952	4265.31
741.204	4267.31
741.456	4175.31
741.708	4213.31
741.96	4236.31
742.212	4285.31
742.464	4231.31
742.716	4103.31
742.968	4217.31
743.22	4149.31
743.472	4056.31
743.724	4147.31
743.976	4260.31
744.228	4283.31
744.48	4029.31
744.732	4074.31
744.983	4234.31
745.235	4171.31
745.487	4094.31
745.739	4133.31
745.991	4152.31
746.243	4196.31
746.495	4024.31
746.747	4023.31
746.999	4139.31
747.25	4126.31
747.502	4044.31
747.754	4123.31
748.006	4082.31
748.258	4199.31
748.51	4232.31
748.761	4077.31
749.013	4087.31
749.265	4147.31
749.517	4126.31
749.768	4139.31
750.02	4177.31
750.272	4112.31
750.524	3903.31
750.776	3870.31
751.027	4077.31
751.279	4118.31
751.531	3888.31
751.782	3967.31
752.034	4085.31
752.286	3974.31
752.538	3813.31
752.789	3927.31
753.041	3991.31
753.293	3929.31
753.544	3865.31
753.796	3909.31
754.048	3970.31
754.299	3929.31
754.551	3866.31
754.803	3797.31
755.054	3901.31
755.306	3935.31
755.558	3784.31
755.809	3830.31
756.061	3950.31
756.312	3832.31
756.564	3790.31
756.816	3808.31
757.067	3819.31
757.319	3795.31
757.57	3736.31
757.822	3800.31
758.073	3885.31
758.325	3828.31
758.577	3694.31
758.828	3690.31
759.08	3873.31
759.331	3839.31
759.583	3674.31
759.834	3783.31
760.086	3761.31
760.337	3726.31
760.589	3630.31
760.84	3605.31
761.092	3686.31
761.343	3669.31
761.595	3551.31
761.846	3685.31
762.097	3646.31
762.349	3614.31
762.6	3498.31
762.852	3621.31
763.103	3741.31
763.355	3541.31
763.606	3475.31
763.857	3651.31
764.109	3737.31
764.36	3610.31
764.612	3490.31
764.863	3597.31
765.114	3634.31
765.366	3494.31
765.617	3416.31
765.868	3468.31
766.12	3627.31
766.371	3623.31
766.622	3406.31
766.874	3509.31
767.125	3622.31
767.376	3446.31
767.628	3353.31
767.879	3422.31
768.13	3538.31
768.381	3529.31
768.633	3443.31
768.884	3443.31
769.135	3524.31
769.386	3504.31
769.638	3396.31
769.889	3403.31
770.14	3477.31
770.391	3351.31
770.643	3301.31
770.894	3304.31
771.145	3395.31
771.396	3338.31
771.647	3250.31
771.899	3318.31
772.15	3393.31
772.401	3354.31
772.652	3186.31
772.903	3229.31
773.154	3616.31
773.406	3882.31
773.657	3300.31
773.908	3243.31
774.159	3309.31
774.41	3329.31
774.661	3230.31
774.912	3246.31
775.163	3406.31
775.414	3375.31
775.666	3098.31
775.917	3113.31
776.168	3204.31
776.419	3190.31
776.67	3106.31
776.921	3080.31
777.172	3146.31
777.423	3179.31
777.674	3195.31
777.925	3179.31
778.176	3140.31
778.427	3127.31
778.678	3044.31
778.929	3079.31
779.18	3188.31
779.431	3073.31
779.682	3082.31
779.933	3099.31
780.184	3104.31
780.435	3095.31
780.686	3032.31
780.937	3075.31
781.188	3106.31
781.439	3187.31
781.69	3146.31
781.941	3082.31
782.191	3073.31
782.442	3046.31
782.693	2950.31
782.944	2960.31
783.195	3008.31
783.446	3027.31
783.697	3015.31
783.948	2911.31
784.199	2922.31
784.449	2908.31
784.7	2966.31
784.951	2961.31
785.202	3065.31
785.453	3051.31
785.704	2845.31
785.954	2832.31
786.205	2917.31
786.456	2854.31
786.707	2756.31
786.958	2794.31
787.208	2936.31
787.459	2917.31
787.71	2905.31
787.961	2871.31
788.211	2919.31
788.462	2876.31
788.713	2779.31
788.964	2783.31
789.214	2900.31
789.465	2876.31
789.716	2801.31
789.967	2845.31
790.217	2834.31
790.468	2781.31
790.719	2713.31
790.969	2762.31
791.22	2822.31
791.471	2893.31
791.721	2894.31
791.972	2751.31
792.223	2843.31
792.473	2749.31
792.724	2741.31
792.975	2729.31
793.225	2806.31
793.476	2756.31
793.726	2668.31
793.977	2740.31
794.228	2864.31
794.478	2752.31
794.729	2651.31
794.979	2730.31
795.23	2740.31
795.481	2687.31
795.731	2591.31
795.982	2641.31
796.232	2614.31
796.483	2556.31
796.733	2555.31
796.984	2621.31
797.234	2704.31
797.485	2719.31
797.735	2534.31
797.986	2568.31
798.236	2692.31
798.487	2614.31
798.737	2601.31
798.988	2678.31
799.238	2734.31
799.489	2603.31
799.739	2488.31
799.99	2565.31
800.24	2672.31
800.491	2722.31
800.741	2551.31
800.991	2450.31
801.242	2531.31
801.492	2561.31
801.743	2521.31
801.993	2671.31
802.244	2756.31
802.494	2547.31
802.744	2505.31
802.995	2515.31
803.245	2537.31
803.495	2509.31
803.746	2448.31
803.996	2533.31
804.246	2516.31
804.497	2510.31
804.747	2382.31
804.997	2460.31
805.248	2473.31
805.498	2426.31
805.748	2429.31
805.999	2342.31
806.249	2413.31
806.499	2386.31
806.75	2301.31
807	2348.31
807.25	2432.31
807.5	2388.31
807.751	2414.31
808.001	2431.31
808.251	2447.31
808.501	2547.31
808.752	2538.31
809.002	2459.31
809.252	2426.31
809.502	2364.31
809.752	2341.31
810.003	2298.31
810.253	2358.31
810.503	2387.31
810.753	2443.31
811.003	2434.31
811.254	2419.31
811.504	2341.31
811.754	2319.31
812.004	2345.31
812.254	2570.31
812.504	2379.31
812.754	2285.31
813.005	2319.31
813.255	2408.31
813.505	2357.31
813.755	2267.31
814.005	2358.31
814.255	2343.31
814.505	2318.31
814.755	2220.31
815.005	2228.31
815.255	2336.31
815.505	2294.31
815.756	2321.31
816.006	2292.31
816.256	2235.31
816.506	2205.31
816.756	2138.31
817.006	2168.31
817.256	2269.31
817.506	2228.31
817.756	2171.31
818.006	2205.31
818.256	2259.31
818.506	2211.31
818.756	2111.31
819.006	2147.31
819.256	2228.31
819.506	2203.31
819.756	2125.31
820.006	2197.31
820.255	2220.31
820.505	2198.31
820.755	2101.31
821.005	2122.31
821.255	2231.31
821.505	2226.31
821.755	2145.31
822.005	2199.31
822.255	2278.31
822.505	2175.31
822.755	2175.31
823.004	2036.31
823.254	2067.31
823.504	2159.31
823.754	2167.31
824.004	2076.31
824.254	2175.31
824.504	2171.31
824.753	2203.31
825.003	2178.31
825.253	2199.31
825.503	2076.31
825.753	2059.31
826.002	2152.31
826.252	2342.31
826.502	2116.31
826.752	2038.31
827.002	2074.31
827.251	2132.31
827.501	2059.31
827.751	1965.31
828.001	2009.31
828.25	2123.31
828.5	2008.31
828.75	1978.31
829	2055.31
829.249	2197.31
829.499	2007.31
829.749	1990.31
829.998	2054.31
830.248	2071.31
830.498	1974.31
830.748	1981.31
830.997	2039.31
831.247	2089.31
831.497	2092.31
831.746	2008.31
831.996	2082.31
832.246	2182.31
832.495	2195.31
832.745	1931.31
832.994	1918.31
833.244	2079.31
833.494	1983.31
833.743	1909.31
833.993	1973.31
834.243	2027.31
834.492	2012.31
834.742	1996.31
834.991	1958.31
835.241	2102.31
835.49	1968.31
835.74	1832.31
835.99	1923.31
836.239	2004.31
836.489	2021.31
836.738	1925.31
836.988	1806.31
837.237	1939.31
837.487	2038.31
837.736	1906.31
837.986	1868.31
838.235	1943.31
838.485	1939.31
838.734	1915.31
838.984	1964.31
839.233	1938.31
839.483	1822.31
839.732	1801.31
839.982	1881.31
840.231	1946.31
840.481	1948.31
840.73	1809.31
840.979	1875.31
841.229	1890.31
841.478	1887.31
841.728	1732.31
841.977	1713.31
842.227	1764.31
842.476	1739.31
842.725	1701.31
842.975	1790.31
843.224	1913.31
843.474	1931.31
843.723	1817.31
843.972	1799.31
844.222	1844.31
844.471	1898.31
844.72	1806.31
844.97	1761.31
845.219	1872.31
845.468	1872.31
845.718	1801.31
845.967	1779.31
846.216	1807.31
846.466	1858.31
846.715	1735.31
846.964	1761.31
847.214	1762.31
847.463	1699.31
847.712	1708.31
847.961	1686.31
848.211	1750.31
848.46	1759.31
848.709	1724.31
848.958	1680.31
849.208	1757.31
849.457	1736.31
849.706	1702.31
849.955	1663.31
850.205	1675.31
850.454	1808.31
850.703	1821.31
850.952	1743.31
851.201	1806.31
851.451	1742.31
851.7	1720.31
851.949	1586.31
852.198	1680.31
852.447	1649.31
852.696	1598.31
852.946	1647.31
853.195	1740.31
853.444	1737.31
853.693	1534.31
853.942	1532.31
854.191	1662.31
854.44	1701.31
854.689	1626.31
854.939	1582.31
855.188	1561.31
855.437	1582.31
855.686	1563.31
855.935	1590.31
856.184	1645.31
856.433	1665.31
856.682	1594.31
856.931	1579.31
857.18	1646.31
857.429	1553.31
857.678	1479.31
857.927	1527.31
858.176	1561.31
858.425	1490.31
858.674	1427.31
858.924	1528.31
859.173	1534.31
859.422	1546.31
859.671	1410.31
859.92	1485.31
860.169	1526.31
860.417	1561.31
860.666	1467.31
860.915	1430.31
861.164	1513.31
861.413	1455.31
861.662	1382.31
861.911	1395.31
862.16	1532.31
862.409	1493.31
862.658	1360.31
862.907	1404.31
863.156	1489.31
863.405	1490.31
863.654	1381.31
863.903	1321.31
864.151	1419.31
864.4	1426.31
864.649	1397.31
864.898	1463.31
865.147	1511.31
865.396	1514.31
865.645	1390.31
865.894	1420.31
866.142	1534.31
866.391	1441.31
866.64	1328.31
866.889	1422.31
867.138	1564.31
867.387	1446.31
867.635	1332.31
867.884	1405.31
868.133	1522.31
868.382	1427.31
868.631	1291.31
868.879	1309.31
869.128	1409.31
869.377	1406.31
869.626	1339.31
869.874	1321.31
870.123	1416.31
870.372	1389.31
870.621	1269.31
870.869	1286.31
871.118	1388.31
871.367	1349.31
871.616	1252.31
871.864	1361.31
872.113	1409.31
872.362	1358.31
872.61	1283.31
872.859	1348.31
873.108	1400.31
873.357	1304.31
873.605	1212.31
873.854	1242.31
874.103	1259.31
874.351	1251.31
874.6	1224.31
874.848	1296.31
875.097	1346.31
875.346	1321.31
875.594	1206.31
875.843	1312.31
876.092	1450.31
876.34	1323.31
876.589	1196.31
876.837	1131.31
877.086	1205.31
877.335	1261.31
877.583	1226.31
877.832	1289.31
878.08	1408.31
878.329	1286.31
878.578	1212.31
878.826	1216.31
879.075	1283.31
879.323	1279.31
879.572	1188.31
879.82	1323.31
880.069	1284.31
880.317	1284.31
880.566	1167.31
880.814	1239.31
881.063	1327.31
881.311	1254.31
881.56	1268.31
881.808	1195.31
882.057	1247.31
882.305	1219.31
882.554	1230.31
882.802	1121.31
883.051	1152.31
883.299	1174.31
883.548	1111.31
883.796	1187.31
884.045	1205.31
884.293	1139.31
884.541	1029.31
884.79	1024.31
885.038	1128.31
885.287	1140.31
885.535	1137.31
885.783	1150.31
886.032	1088.31
886.28	1064.31
886.529	1023.31
886.777	1079.31
887.025	1213.31
887.274	1094.31
887.522	1065.31
887.77	1063.31
888.019	1066.31
888.267	1047.31
888.516	959.31
888.764	1005.31
889.012	1095.31
889.261	1082.31
889.509	1004.31
889.757	1020.31
890.005	1088.31
890.254	1030.31
890.502	1059.31
890.75	1259.31
890.999	1233.31
891.247	1134.31
891.495	1073.31
891.743	1047.31
891.992	1201.31
892.24	1092.31
892.488	964.31
892.737	980.31
892.985	1068.31
893.233	1060.31
893.481	996.31
893.729	970.31
893.978	1117.31
894.226	1149.31
894.474	1011.31
894.722	960.31
894.97	995.31
895.219	1003.31
895.467	1006.31
895.715	1045.31
895.963	1010.31
896.211	961.31
896.46	878.31
896.708	958.31
896.956	1054.31
897.204	1138.31
897.452	1040.31
897.7	978.31
897.948	1047.31
898.197	987.31
898.445	920.31
898.693	935.31
898.941	997.31
899.189	985.31
899.437	930.31
899.685	1031.31
899.933	966.31
900.181	973.31
900.43	892.31
900.678	914.31
900.926	981.31
901.174	920.31
901.422	887.31
901.67	902.31
901.918	961.31
902.166	922.31
902.414	799.31
902.662	838.31
902.91	954.31
903.158	923.31
903.406	858.31
903.654	886.31
903.902	923.31
904.15	890.31
904.398	783.31
904.646	861.31
904.894	945.31
905.142	951.31
905.39	904.31
905.638	831.31
905.886	836.31
906.134	823.31
906.382	818.31
906.63	795.31
906.878	876.31
907.126	862.31
907.374	779.31
907.622	788.31
907.869	931.31
908.117	898.31
908.365	824.31
908.613	791.31
908.861	819.31
909.109	771.31
909.357	727.31
909.605	819.31
909.853	887.31
910.1	832.31
910.348	655.31
910.596	687.31
910.844	872.31
911.092	897.31
911.34	787.31
911.588	808.31
911.835	851.31
912.083	810.31
912.331	807.31
912.579	833.31
912.827	1005.31
913.075	844.31
913.322	725.31
913.57	750.31
913.818	871.31
914.066	803.31
914.313	705.31
914.561	791.31
914.809	801.31
915.057	720.31
915.305	698.31
915.552	723.31
915.8	827.31
916.048	727.31
916.296	652.31
916.543	751.31
916.791	851.31
917.039	789.31
917.286	683.31
917.534	681.31
917.782	779.31
918.03	711.31
918.277	613.31
918.525	601.31
918.773	707.31
919.02	717.31
919.268	666.31
919.516	700.31
919.763	685.31
920.011	678.31
920.259	581.31
920.506	678.31
920.754	792.31
921.002	789.31
921.249	739.31
921.497	679.31
921.745	695.31
921.992	705.31
922.24	590.31
922.487	686.31
922.735	867.31
922.983	789.31
923.23	717.31
923.478	658.31
923.725	730.31
923.973	727.31
924.221	678.31
924.468	716.31
924.716	715.31
924.963	693.31
925.211	613.31
925.458	701.31
925.706	798.31
925.953	794.31
926.201	626.31
926.448	593.31
926.696	690.31
926.944	673.31
927.191	606.31
927.439	607.31
927.686	654.31
927.934	683.31
928.181	575.31
928.429	573.31
928.676	624.31
928.923	550.31
929.171	505.31
929.418	639.31
929.666	704.31
929.913	700.31
930.161	502.31
930.408	540.31
930.656	611.31
930.903	629.31
931.151	511.31
931.398	562.31
931.645	678.31
931.893	561.31
932.14	536.31
932.388	540.31
932.635	693.31
932.882	770.31
933.13	650.31
933.377	541.31
933.625	633.31
933.872	561.31
934.119	475.31
934.367	506.31
934.614	517.31
934.861	515.31
935.109	527.31
935.356	575.31
935.603	620.31
935.851	570.31
936.098	509.31
936.345	601.31
936.593	604.31
936.84	549.31
937.087	418.31
937.335	486.31
937.582	554.31
937.829	575.31
938.077	517.31
938.324	496.31
938.571	571.31
938.818	506.31
939.066	462.31
939.313	456.31
939.56	557.31
939.807	557.31
940.055	417.31
940.302	491.31
940.549	642.31
940.796	549.31
941.044	500.31
941.291	521.31
941.538	672.31
941.785	511.31
942.033	457.31
942.28	543.31
942.527	554.31
942.774	528.31
943.021	396.31
943.269	428.31
943.516	538.31
943.763	562.31
944.01	489.31
944.257	545.31
944.504	611.31
944.752	582.31
944.999	501.31
945.246	459.31
945.493	494.31
945.74	494.31
945.987	419.31
946.234	487.31
946.482	578.31
946.729	469.31
946.976	429.31
947.223	461.31
947.47	579.31
947.717	536.31
947.964	569.31
948.211	531.31
948.458	567.31
948.705	509.31
948.952	402.31
949.2	458.31
949.447	582.31
949.694	596.31
949.941	435.31
950.188	411.31
950.435	427.31
950.682	461.31
950.929	346.31
951.176	404.31
951.423	561.31
951.67	517.31
951.917	479.31
952.164	466.31
952.411	543.31
952.658	581.31
952.905	428.31
953.152	363.31
953.399	494.31
953.646	481.31
953.893	372.31
954.14	395.31
954.387	434.31
954.634	436.31
954.881	393.31
955.128	454.31
955.375	427.31
955.622	418.31
955.869	433.31
956.115	409.31
956.362	484.31
956.609	450.31
956.856	381.31
957.103	385.31
957.35	478.31
957.597	495.31
957.844	426.31
958.091	395.31
958.338	492.31
958.585	439.31
958.831	252.31
959.078	316.31
959.325	467.31
959.572	384.31
959.819	305.31
960.066	280.31
960.313	402.31
960.559	377.31
960.806	247.31
961.053	302.31
961.3	451.31
961.547	460.31
961.794	271.31
962.04	426.31
962.287	460.31
962.534	311.31
962.781	298.31
963.028	365.31
963.274	468.31
963.521	369.31
963.768	297.31
964.015	344.31
964.262	510.31
964.508	365.31
964.755	260.31
965.002	282.31
965.249	315.31
965.495	266.31
965.742	243.31
965.989	269.31
966.236	399.31
966.482	322.31
966.729	266.31
966.976	231.31
967.222	325.31
967.469	330.31
967.716	267.31
967.963	258.31
968.209	333.31
968.456	292.31
968.703	196.31
968.949	281.31
969.196	451.31
969.443	459.31
969.689	235.31
969.936	201.31
970.183	303.31
970.429	265.31
970.676	233.31
970.923	291.31
971.169	341.31
971.416	267.31
971.663	240.31
971.909	277.31
972.156	346.31
972.402	331.31
972.649	278.31
972.896	306.31
973.142	322.31
973.389	334.31
973.635	240.31
973.882	347.31
974.129	427.31
974.375	298.31
974.622	204.31
974.868	225.31
975.115	288.31
975.361	235.31
975.608	221.31
975.855	350.31
976.101	350.31
976.348	276.31
976.594	222.31
976.841	289.31
977.087	290.31
977.334	323.31
977.58	178.31
977.827	179.31
978.073	318.31
978.32	316.31
978.566	171.31
978.813	248.31
979.059	278.31
979.306	251.31
979.552	158.31
979.799	220.31
980.045	224.31
980.292	235.31
980.538	152.31
980.785	145.31
981.031	205.31
981.278	177.31
981.524	120.31
981.771	267.31
982.017	404.31
982.263	320.31
982.51	179.31
982.756	256.31
983.003	307.31
983.249	247.31
983.495	160.31
983.742	161.31
983.988	229.31
984.235	260.31
984.481	151.31
984.727	150.31
984.974	291.31
985.22	246.31
985.467	179.31
985.713	190.31
985.959	307.31
986.206	288.31
986.452	190.31
986.698	247.31
986.945	228.31
987.191	278.31
987.437	292.31
987.684	223.31
987.93	382.31
988.176	287.31
988.423	105.31
988.669	177.31
988.915	337.31
989.162	191.31
989.408	95.31
989.654	179.31
989.901	221.31
990.147	214.31
990.393	202.31
990.639	252.31
990.886	290.31
991.132	345.31
991.378	277.31
991.625	377.31
991.871	342.31
992.117	262.31
992.363	194.31
992.61	214.31
992.856	315.31
993.102	187.31
993.348	121.31
993.594	155.31
993.841	202.31
994.087	327.31
994.333	196.31
994.579	189.31
994.826	225.31
995.072	228.31
995.318	42.31
995.564	106.31
995.81	246.31
996.057	183.31
996.303	75.31
996.549	96.31
996.795	195.31
997.041	184.31
997.287	155.31
997.534	143.31
997.78	193.31
998.026	214.31
998.272	100.31
998.518	93.31
998.764	238.31
999.01	277.31
999.256	171.31
999.503	123.31
999.749	170.31
999.995	119.31
1000.241	92.31
1000.487	162.31
1000.733	203.31
1000.979	161.31
1001.225	134.31
1001.471	195.31
1001.718	237.31
1001.964	288.31
1002.21	107.31
1002.456	149.31
1002.702	298.31
1002.948	203.31
1003.194	128.31
1003.44	96.31
1003.686	186.31
1003.932	134.31
1004.178	93.31
1004.424	162.31
1004.67	295.31
1004.916	267.31
1005.162	151.31
1005.408	103.31
1005.654	240.31
1005.9	99.31
1006.146	38.31
1006.392	103.31
1006.638	192.31
1006.884	166.31
1007.13	76.31
1007.376	52.31
1007.622	213.31
1007.868	253.31
1008.114	101.31
1008.36	174.31
1008.606	221.31
1008.852	216.31
1009.098	155.31
1009.344	197.31
1009.59	160.31
1009.836	37.31
1010.082	-32.69
1010.328	106.31
1010.574	181.31
1010.82	73.31
1011.065	-2.69
1011.311	36.31
1011.557	122.31
1011.803	100.31
1012.049	47.31
1012.295	102.31
1012.541	138.31
1012.787	146.31
1013.033	5.31
1013.278	-16.69
1013.524	115.31
1013.77	193.31
1014.016	95.31
1014.262	103.31
1014.508	202.31
1014.754	46.31
1015	16.31
1015.245	149.31
1015.491	193.31
1015.737	157.31
1015.983	15.31
1016.229	-10.69
1016.475	123.31
1016.72	251.31
1016.966	267.31
1017.212	154.31
1017.458	214.31
1017.704	134.31
1017.949	2.31
1018.195	171.31
1018.441	253.31
1018.687	197.31
1018.933	40.31
1019.178	53.31
1019.424	206.31
1019.67	218.31
1019.916	21.31
1020.161	77.31
1020.407	127.31
1020.653	79.31
1020.899	15.31
1021.144	90.31
1021.39	162.31
1021.636	43.31
1021.882	-53.69
1022.127	86.31
1022.373	220.31
1022.619	160.31
1022.865	69.31
1023.11	51.31
1023.356	175.31
1023.602	109.31
1023.847	48.31
1024.093	75.31
1024.339	44.31
1024.584	38.31
1024.83	45.31
1025.076	41.31
1025.321	172.31
1025.567	135.31
1025.813	19.31
1026.058	81.31
1026.304	158.31
1026.55	81.31
1026.795	59.31
1027.041	42.31
1027.287	104.31
1027.532	130.31
1027.778	98.31
1028.024	73.31
1028.269	92.31
1028.515	-2.69
1028.76	-28.69
1029.006	34.31
1029.252	142.31
1029.497	80.31
1029.743	62.31
1029.989	1.31
1030.234	143.31
1030.48	209.31
1030.725	19.31
1030.971	52.31
1031.216	183.31
1031.462	87.31
1031.708	-54.69
1031.953	-9.69
1032.199	83.31
1032.444	91.31
1032.69	42.31
1032.935	32.31
1033.181	154.31
1033.426	31.31
1033.672	-112.69
1033.918	-56.69
1034.163	53.31
1034.409	50.31
1034.654	-5.69
1034.9	108.31
1035.145	141.31
1035.391	67.31
1035.636	-59.69
1035.882	39.31
1036.127	33.31
1036.373	-32.69
1036.618	-110.69
1036.864	8.31
1037.109	138.31
1037.355	44.31
1037.6	-42.69
1037.845	-13.69
1038.091	177.31
1038.336	143.31
1038.582	165.31
1038.827	247.31
1039.073	68.31
1039.318	-1.69
1039.564	-89.69
1039.809	-31.69
1040.055	135.31
1040.3	134.31
1040.545	-1.69
1040.791	-17.69
1041.036	46.31
1041.282	76.31
1041.527	121.31
1041.772	-56.69
1042.018	13.31
1042.263	50.31
1042.509	-83.69
1042.754	-59.69
1042.999	59.31
1043.245	33.31
1043.49	-115.69
1043.736	-44.69
1043.981	39.31
1044.226	48.31
1044.472	28.31
1044.717	37.31
1044.962	131.31
1045.208	46.31
1045.453	-173.69
1045.698	-104.69
1045.944	108.31
1046.189	71.31
1046.434	-31.69
1046.68	-14.69
1046.925	169.31
1047.17	21.31
1047.416	-152.69
1047.661	-52.69
1047.906	107.31
1048.152	68.31
1048.397	-18.69
1048.642	-31.69
1048.887	155.31
1049.133	141.31
1049.378	-41.69
1049.623	-38.69
1049.869	90.31
1050.114	27.31
1050.359	-60.69
1050.604	-0.69
1050.85	148.31
1051.095	17.31
1051.34	-77.69
1051.585	3.31
1051.831	200.31
1052.076	42.31
1052.321	-165.69
1052.566	-61.69
1052.812	126.31
1053.057	50.31
1053.302	-40.69
1053.547	62.31
1053.792	111.31
1054.038	103.31
1054.283	-102.69
1054.528	-2.69
1054.773	54.31
1055.018	49.31
1055.264	-69.69
1055.509	-96.69
1055.754	25.31
1055.999	-29.69
1056.244	-114.69
1056.49	-37.69
1056.735	46.31
1056.98	-15.69
1057.225	-111.69
1057.47	77.31
1057.715	6.31
1057.96	-73.69
1058.206	-106.69
1058.451	-8.69
1058.696	133.31
1058.941	64.31
1059.186	-116.69
1059.431	-83.69
1059.676	115.31
1059.922	62.31
1060.167	145.31
1060.412	314.31
1060.657	92.31
1060.902	40.31
1061.147	-146.69
1061.392	-70.69
1061.637	55.31
1061.882	-12.69
1062.127	-151.69
1062.373	-128.69
1062.618	134.31
1062.863	170.31
1063.108	-26.69
1063.353	-107.69
1063.598	-4.69
1063.843	-16.69
1064.088	-100.69
1064.333	-112.69
1064.578	50.31
1064.823	76.31
1065.068	-164.69
1065.313	-89.69
1065.558	57.31
1065.803	69.31
1066.048	-128.69
1066.293	-122.69
1066.538	96.31
1066.783	31.31
1067.028	-150.69
1067.273	-126.69
1067.518	69.31
1067.763	-6.69
1068.008	-158.69
1068.253	-95.69
1068.498	81.31
1068.743	21.31
1068.988	-133.69
1069.233	-124.69
1069.478	78.31
1069.723	145.31
1069.968	-43.69
1070.213	-3.69
1070.458	92.31
1070.703	-6.69
1070.948	-170.69
1071.193	-64.69
1071.438	57.31
1071.683	87.31
1071.928	-30.69
1072.173	-38.69
1072.418	25.31
1072.663	5.31
1072.908	-137.69
1073.152	-64.69
1073.397	99.31
1073.642	-22.69
1073.887	-54.69
1074.132	74.31
1074.377	42.31
1074.622	7.31
1074.867	-98.69
1075.112	-44.69
1075.357	113.31
1075.601	-9.69
1075.846	-50.69
1076.091	37.31
1076.336	96.31
1076.581	-51.69
1076.826	-162.69
1077.071	-65.69
1077.315	176.31
1077.56	117.31
1077.805	-102.69
1078.05	-54.69
1078.295	-0.69
1078.54	-29.69
1078.785	-162.69
1079.029	-108.69
1079.274	77.31
1079.519	-64.69
1079.764	-153.69
1080.009	-32.69
1080.253	45.31
1080.498	-54.69
1080.743	-204.69
1080.988	-45.69
1081.233	172.31
1081.478	90.31
1081.722	-130.69
1081.967	-3.69
1082.212	141.31
1082.457	38.31
1082.701	-97.69
1082.946	-55.69
1083.191	74.31
1083.436	-28.69
1083.681	-188.69
1083.925	-87.69
1084.17	10.31
1084.415	30.31
1084.66	-182.69
1084.904	-89.69
1085.149	-1.69
1085.394	-38.69
1085.639	-213.69
1085.883	-101.69
1086.128	140.31
1086.373	151.31
1086.617	-76.69
1086.862	-146.69
1087.107	-0.69
1087.352	-56.69
1087.596	-134.69
1087.841	-12.69
1088.086	39.31
1088.33	18.31
1088.575	-213.69
1088.82	-84.69
1089.064	69.31
1089.309	-67.69
1089.554	-168.69
1089.798	-138.69
1090.043	56.31
1090.288	-9.69
1090.533	-204.69
1090.777	-124.69
1091.022	37.31
1091.266	64.31
1091.511	-122.69
1091.756	-25.69
1092	125.31
1092.245	93.31
1092.49	-152.69
1092.734	-89.69
1092.979	91.31
1093.224	-14.69
1093.468	-162.69
1093.713	-110.69
1093.957	25.31
1094.202	-33.69
1094.447	-206.69
1094.691	-104.69
1094.936	36.31
1095.181	-2.69
1095.425	-176.69
1095.67	-135.69
1095.914	27.31
1096.159	3.31
1096.403	-155.69
1096.648	-53.69
1096.893	59.31
1097.137	-76.69
1097.382	-224.69
1097.626	-148.69
1097.871	21.31
1098.115	-21.69
1098.36	-196.69
1098.605	-108.69
1098.849	-43.69
1099.094	-100.69
1099.338	-170.69
1099.583	-94.69
1099.827	125.31
1100.072	40.31
1100.316	-156.69
1100.561	-92.69
1100.805	48.31
1101.05	23.31
1101.294	-169.69
1101.539	-142.69
1101.783	4.31
1102.028	7.31
1102.273	-134.69
1102.517	-85.69
1102.761	48.31
1103.006	-62.69
1103.25	-269.69
1103.495	-175.69
1103.739	45.31
1103.984	109.31
1104.228	-96.69
1104.473	-15.69
1104.717	50.31
1104.962	-1.69
1105.206	-124.69
1105.451	-145.69
1105.695	9.31
1105.94	-8.69
1106.184	-140.69
1106.429	-81.69
1106.673	14.31
1106.917	90.31
1107.162	-150.69
1107.406	-16.69
1107.651	150.31
1107.895	-70.69
1108.14	-188.69
1108.384	-106.69
1108.628	106.31
1108.873	109.31
1109.117	-133.69
1109.362	-123.69
1109.606	-27.69
1109.85	-18.69
1110.095	-168.69
1110.339	-101.69
1110.584	94.31
1110.828	51.31
1111.072	-88.69
1111.317	-118.69
1111.561	-17.69
1111.806	-35.69
1112.05	-175.69
1112.294	-75.69
1112.539	16.31
1112.783	-3.69
1113.027	-117.69
1113.272	-109.69
1113.516	-34.69
1113.76	-46.69
1114.005	-127.69
1114.249	-72.69
1114.493	87.31
1114.738	107.31
1114.982	-38.69
1115.226	-82.69
1115.471	-0.69
1115.715	-22.69
1115.959	-171.69
1116.204	-154.69
1116.448	10.31
1116.692	-89.69
1116.937	-157.69
1117.181	-16.69
1117.425	-15.69
1117.67	-65.69
1117.914	-150.69
1118.158	-90.69
1118.402	125.31
1118.647	68.31
1118.891	-97.69
1119.135	-31.69
1119.38	114.31
1119.624	9.31
1119.868	-155.69
1120.112	-146.69
1120.357	-49.69
1120.601	-112.69
1120.845	-220.69
1121.089	-140.69
1121.334	39.31
