Data from HR4C21111__24__09-58-31-954.txt Node

Date: Mon Feb 22 09:58:31 IST 2021
User: Kapil
Spectrometer: HR4C2111
Trigger mode: 4
Integration Time (sec): 2.300000E0
Scans to average: 1
Electric dark correction enabled: true
Nonlinearity correction enabled: false
Boxcar width: 0
XAxis mode: Wavelengths
Number of Pixels in Spectrum: 3648
>>>>>Begin Spectral Data<<<<<
189.472	-466.54
189.745	-466.54
190.017	-466.54
190.289	-471.54
190.561	-311.54
190.834	-28.54
191.106	-117.54
191.378	28.46
191.65	11.46
191.923	-146.54
192.195	-107.54
192.467	131.46
192.739	116.46
193.011	-21.54
193.284	95.46
193.556	167.46
193.828	-26.54
194.1	-102.54
194.372	-116.54
194.644	50.46
194.916	60.46
195.188	-152.54
195.46	-74.54
195.732	61.46
196.004	-23.54
196.276	-118.54
196.548	-65.54
196.82	64.46
197.092	62.46
197.364	-114.54
197.636	-89.54
197.908	10.46
198.18	-47.54
198.452	-81.54
198.724	-44.54
198.996	53.46
199.268	67.46
199.54	-28.54
199.811	-113.54
200.083	95.46
200.355	23.46
200.627	-204.54
200.899	-78.54
201.171	47.46
201.442	-51.54
201.714	-180.54
201.986	-96.54
202.258	62.46
202.529	112.46
202.801	4.46
203.073	82.46
203.345	194.46
203.616	2.46
203.888	-148.54
204.16	-145.54
204.431	73.46
204.703	-17.54
204.974	-139.54
205.246	-5.54
205.518	166.46
205.789	-2.54
206.061	-119.54
206.332	-104.54
206.604	9.46
206.876	97.46
207.147	114.46
207.419	17.46
207.69	136.46
207.962	-22.54
208.233	-189.54
208.505	11.46
208.776	183.46
209.047	82.46
209.319	-127.54
209.59	-91.54
209.862	98.46
210.133	-38.54
210.404	-162.54
210.676	-108.54
210.947	76.46
211.219	67.46
211.49	-122.54
211.761	-49.54
212.033	28.46
212.304	-38.54
212.575	-179.54
212.846	-86.54
213.118	21.46
213.389	-58.54
213.66	-110.54
213.931	-34.54
214.203	40.46
214.474	-35.54
214.745	-121.54
215.016	132.46
215.287	428.46
215.559	62.46
215.83	-130.54
216.101	-69.54
216.372	18.46
216.643	76.46
216.914	16.46
217.185	-80.54
217.456	151.46
217.727	20.46
217.998	-156.54
218.269	-46.54
218.54	32.46
218.811	-4.54
219.082	-108.54
219.353	-72.54
219.624	-10.54
219.895	-27.54
220.166	-136.54
220.437	-104.54
220.708	89.46
220.979	-21.54
221.25	-145.54
221.521	-82.54
221.792	35.46
222.063	77.46
222.334	28.46
222.604	190.46
222.875	188.46
223.146	100.46
223.417	-176.54
223.688	-40.54
223.958	133.46
224.229	-43.54
224.5	-197.54
224.771	-92.54
225.041	63.46
225.312	48.46
225.583	-116.54
225.854	-67.54
226.124	83.46
226.395	-20.54
226.666	-137.54
226.936	-103.54
227.207	75.46
227.478	-33.54
227.748	-103.54
228.019	46.46
228.289	259.46
228.56	-40.54
228.831	-50.54
229.101	32.46
229.372	73.46
229.642	-1.54
229.913	-149.54
230.183	-113.54
230.454	14.46
230.724	5.46
230.995	-100.54
231.265	-59.54
231.536	66.46
231.806	47.46
232.076	-113.54
232.347	-130.54
232.617	18.46
232.888	20.46
233.158	-56.54
233.428	-122.54
233.699	-11.54
233.969	-47.54
234.239	-169.54
234.51	-80.54
234.78	54.46
235.05	-17.54
235.321	-128.54
235.591	-75.54
235.861	69.46
236.131	-39.54
236.402	-176.54
236.672	-92.54
236.942	35.46
237.212	32.46
237.483	-62.54
237.753	6.46
238.023	170.46
238.293	23.46
238.563	-75.54
238.833	-108.54
239.103	60.46
239.374	-11.54
239.644	-145.54
239.914	-36.54
240.184	127.46
240.454	-11.54
240.724	-157.54
240.994	-61.54
241.264	27.46
241.534	63.46
241.804	-21.54
242.074	-93.54
242.344	-30.54
242.614	-56.54
242.884	-180.54
243.154	-126.54
243.424	32.46
243.694	66.46
243.964	-91.54
244.234	-68.54
244.503	132.46
244.773	6.46
245.043	-219.54
245.313	-140.54
245.583	139.46
245.853	91.46
246.123	-177.54
246.392	-95.54
246.662	14.46
246.932	-17.54
247.202	-174.54
247.471	-50.54
247.741	269.46
248.011	110.46
248.281	-143.54
248.55	-88.54
248.82	68.46
249.09	5.46
249.359	-81.54
249.629	-68.54
249.899	54.46
250.168	60.46
250.438	-40.54
250.708	-112.54
250.977	86.46
251.247	68.46
251.516	-113.54
251.786	-41.54
252.055	140.46
252.325	18.46
252.595	-88.54
252.864	-45.54
253.134	54.46
253.403	-26.54
253.673	-167.54
253.942	-113.54
254.212	37.46
254.481	-2.54
254.75	-138.54
255.02	-81.54
255.289	74.46
255.559	-18.54
255.828	-132.54
256.097	-31.54
256.367	37.46
256.636	-66.54
256.906	-132.54
257.175	-6.54
257.444	252.46
257.714	61.46
257.983	-71.54
258.252	-35.54
258.521	23.46
258.791	57.46
259.06	-98.54
259.329	-50.54
259.598	56.46
259.868	-8.54
260.137	-113.54
260.406	10.46
260.675	94.46
260.944	48.46
261.214	-127.54
261.483	-44.54
261.752	180.46
262.021	9.46
262.29	-172.54
262.559	-127.54
262.828	20.46
263.097	-41.54
263.366	-199.54
263.635	-96.54
263.905	135.46
264.174	16.46
264.443	-199.54
264.712	-112.54
264.981	31.46
265.25	-46.54
265.519	-136.54
265.788	-144.54
266.057	37.46
266.325	61.46
266.594	-40.54
266.863	-100.54
267.132	25.46
267.401	5.46
267.67	-186.54
267.939	-132.54
268.208	44.46
268.477	81.46
268.745	-119.54
269.014	-110.54
269.283	127.46
269.552	35.46
269.821	-110.54
270.089	-15.54
270.358	1.46
270.627	-29.54
270.896	-132.54
271.164	-155.54
271.433	7.46
271.702	73.46
271.971	-145.54
272.239	-136.54
272.508	27.46
272.777	-57.54
273.045	-69.54
273.314	-50.54
273.583	91.46
273.851	-18.54
274.12	-149.54
274.388	-133.54
274.657	-3.54
274.926	-8.54
275.194	-156.54
275.463	-61.54
275.731	38.46
276	204.46
276.268	414.46
276.537	-83.54
276.805	22.46
277.074	35.46
277.342	-163.54
277.611	-96.54
277.879	106.46
278.148	20.46
278.416	-136.54
278.684	-116.54
278.953	-14.54
279.221	-30.54
279.49	-205.54
279.758	-103.54
280.026	-0.54
280.295	4.46
280.563	-112.54
280.831	923.46
281.1	2231.46
281.368	222.46
281.636	-78.54
281.904	-106.54
282.173	4.46
282.441	-39.54
282.709	-88.54
282.977	28.46
283.246	37.46
283.514	-43.54
283.782	-70.54
284.05	33.46
284.318	72.46
284.587	-19.54
284.855	-112.54
285.123	-35.54
285.391	65.46
285.659	39.46
285.927	-143.54
286.195	-64.54
286.463	55.46
286.732	-11.54
287	-119.54
287.268	-53.54
287.536	30.46
287.804	-41.54
288.072	-145.54
288.34	-92.54
288.608	63.46
288.876	-33.54
289.144	-125.54
289.412	-8.54
289.68	56.46
289.948	-24.54
290.215	-108.54
290.483	-103.54
290.751	88.46
291.019	96.46
291.287	-165.54
291.555	-107.54
291.823	39.46
292.091	-9.54
292.358	-57.54
292.626	-17.54
292.894	80.46
293.162	57.46
293.43	-111.54
293.697	-84.54
293.965	51.46
294.233	-26.54
294.501	-174.54
294.768	-73.54
295.036	60.46
295.304	26.46
295.572	-135.54
295.839	-99.54
296.107	120.46
296.375	9.46
296.642	-144.54
296.91	-122.54
297.178	51.46
297.445	174.46
297.713	100.46
297.98	-81.54
298.248	-26.54
298.516	-33.54
298.783	-109.54
299.051	-116.54
299.318	4.46
299.586	-29.54
299.853	-97.54
300.121	-84.54
300.388	48.46
300.656	-4.54
300.923	-135.54
301.191	-42.54
301.458	59.46
301.726	-14.54
301.993	-151.54
302.26	-87.54
302.528	67.46
302.795	6.46
303.063	-75.54
303.33	-42.54
303.597	29.46
303.865	8.46
304.132	-144.54
304.399	-130.54
304.667	-17.54
304.934	28.46
305.201	-102.54
305.469	-17.54
305.736	54.46
306.003	39.46
306.27	-30.54
306.538	-96.54
306.805	-0.54
307.072	-22.54
307.339	-79.54
307.606	-36.54
307.874	166.46
308.141	69.46
308.408	-121.54
308.675	-105.54
308.942	-47.54
309.209	-71.54
309.477	-129.54
309.744	-99.54
310.011	30.46
310.278	35.46
310.545	-21.54
310.812	-39.54
311.079	150.46
311.346	206.46
311.613	52.46
311.88	-40.54
312.147	-63.54
312.414	-41.54
312.681	-104.54
312.948	-20.54
313.215	117.46
313.482	89.46
313.749	-89.54
314.016	-200.54
314.283	-45.54
314.55	63.46
314.817	-97.54
315.083	-126.54
315.35	-73.54
315.617	-125.54
315.884	-130.54
316.151	58.46
316.418	156.46
316.684	-19.54
316.951	-183.54
317.218	-112.54
317.485	-7.54
317.752	-65.54
318.018	-119.54
318.285	-3.54
318.552	25.46
318.819	-56.54
319.085	-136.54
319.352	-43.54
319.619	49.46
319.885	-28.54
320.152	-193.54
320.419	-94.54
320.685	41.46
320.952	-27.54
321.219	-68.54
321.485	74.46
321.752	18.46
322.019	-48.54
322.285	21.46
322.552	5.46
322.818	146.46
323.085	-30.54
323.351	-134.54
323.618	-19.54
323.884	43.46
324.151	-67.54
324.417	-42.54
324.684	-88.54
324.95	-62.54
325.217	-149.54
325.483	-180.54
325.75	-24.54
326.016	8.46
326.283	-22.54
326.549	-185.54
326.815	-68.54
327.082	112.46
327.348	11.46
327.615	-102.54
327.881	-20.54
328.147	134.46
328.414	131.46
328.68	20.46
328.946	-42.54
329.212	28.46
329.479	-7.54
329.745	-113.54
330.011	-110.54
330.278	16.46
330.544	-33.54
330.81	-20.54
331.076	-31.54
331.342	-34.54
331.609	-39.54
331.875	-82.54
332.141	-92.54
332.407	46.46
332.673	12.46
332.94	-7.54
333.206	-40.54
333.472	42.46
333.738	61.46
334.004	-122.54
334.27	-22.54
334.536	8.46
334.802	-33.54
335.068	-86.54
335.334	7.46
335.6	35.46
335.866	-20.54
336.132	-161.54
336.398	-79.54
336.664	-2.54
336.93	-39.54
337.196	-81.54
337.462	-18.54
337.728	38.46
337.994	-29.54
338.26	-71.54
338.526	-23.54
338.792	-43.54
339.058	-36.54
339.324	-141.54
339.59	-3.54
339.856	69.46
340.121	-48.54
340.387	-126.54
340.653	77.46
340.919	159.46
341.185	64.46
341.45	-65.54
341.716	53.46
341.982	117.46
342.248	-45.54
342.514	-73.54
342.779	8.46
343.045	40.46
343.311	-1.54
343.576	-79.54
343.842	-7.54
344.108	159.46
344.374	43.46
344.639	-100.54
344.905	-76.54
345.171	66.46
345.436	-33.54
345.702	-79.54
345.967	90.46
346.233	124.46
346.499	52.46
346.764	-150.54
347.03	-54.54
347.295	-18.54
347.561	29.46
347.826	-22.54
348.092	-90.54
348.357	2.46
348.623	-3.54
348.888	-90.54
349.154	-51.54
349.419	81.46
349.685	40.46
349.95	-40.54
350.216	-14.54
350.481	70.46
350.747	-19.54
351.012	-124.54
351.277	-62.54
351.543	66.46
351.808	19.46
352.074	-152.54
352.339	-94.54
352.604	79.46
352.87	54.46
353.135	-60.54
353.4	-16.54
353.666	46.46
353.931	14.46
354.196	-86.54
354.461	-62.54
354.727	96.46
354.992	79.46
355.257	-66.54
355.522	26.46
355.788	65.46
356.053	115.46
356.318	-11.54
356.583	-32.54
356.848	166.46
357.113	272.46
357.379	38.46
357.644	10.46
357.909	188.46
358.174	212.46
358.439	-43.54
358.704	24.46
358.969	148.46
359.234	173.46
359.499	-1.54
359.765	83.46
360.03	197.46
360.295	201.46
360.56	19.46
360.825	99.46
361.09	302.46
361.355	142.46
361.62	102.46
361.885	124.46
362.15	124.46
362.415	154.46
362.679	81.46
362.944	236.46
363.209	253.46
363.474	273.46
363.739	206.46
364.004	127.46
364.269	194.46
364.534	246.46
364.799	205.46
365.063	222.46
365.328	336.46
365.593	322.46
365.858	193.46
366.123	193.46
366.387	344.46
366.652	281.46
366.917	173.46
367.182	254.46
367.447	418.46
367.711	371.46
367.976	303.46
368.241	371.46
368.505	429.46
368.77	331.46
369.035	335.46
369.299	410.46
369.564	450.46
369.829	379.46
370.093	336.46
370.358	340.46
370.623	464.46
370.887	493.46
371.152	358.46
371.416	431.46
371.681	469.46
371.946	390.46
372.21	387.46
372.475	541.46
372.739	588.46
373.004	521.46
373.268	488.46
373.533	547.46
373.797	605.46
374.062	631.46
374.326	482.46
374.591	575.46
374.855	674.46
375.12	594.46
375.384	472.46
375.648	573.46
375.913	714.46
376.177	740.46
376.442	634.46
376.706	656.46
376.97	789.46
377.235	762.46
377.499	746.46
377.763	760.46
378.028	756.46
378.292	821.46
378.556	754.46
378.821	700.46
379.085	816.46
379.349	766.46
379.614	705.46
379.878	843.46
380.142	1029.46
380.406	961.46
380.671	982.46
380.935	1120.46
381.199	1236.46
381.463	1124.46
381.727	1079.46
381.991	1060.46
382.256	1134.46
382.52	1095.46
382.784	1117.46
383.048	1264.46
383.312	1209.46
383.576	1196.46
383.84	1107.46
384.104	1184.46
384.369	1323.46
384.633	1239.46
384.897	1140.46
385.161	1306.46
385.425	1454.46
385.689	1374.46
385.953	1348.46
386.217	1356.46
386.481	1467.46
386.745	1542.46
387.009	1512.46
387.273	1472.46
387.537	1516.46
387.801	1573.46
388.064	1512.46
388.328	1652.46
388.592	1735.46
388.856	1670.46
389.12	1632.46
389.384	1704.46
389.648	1758.46
389.912	1813.46
390.176	1853.46
390.439	1986.46
390.703	1836.46
390.967	1859.46
391.231	1802.46
391.495	1850.46
391.758	1934.46
392.022	1995.46
392.286	1880.46
392.55	1920.46
392.813	2048.46
393.077	2133.46
393.341	2084.46
393.605	2190.46
393.868	2174.46
394.132	2152.46
394.396	2113.46
394.659	2255.46
394.923	2222.46
395.187	2172.46
395.45	2200.46
395.714	2246.46
395.978	2305.46
396.241	2315.46
396.505	2315.46
396.768	2386.46
397.032	2458.46
397.295	2469.46
397.559	2422.46
397.823	2406.46
398.086	2576.46
398.35	2522.46
398.613	2444.46
398.877	2548.46
399.14	2702.46
399.404	2774.46
399.667	2679.46
399.931	2625.46
400.194	2741.46
400.457	2787.46
400.721	2777.46
400.984	2843.46
401.248	2832.46
401.511	2806.46
401.775	2687.46
402.038	2772.46
402.301	3015.46
402.565	3005.46
402.828	2838.46
403.091	2941.46
403.355	3122.46
403.618	3083.46
403.881	3064.46
404.145	3121.46
404.408	3171.46
404.671	3093.46
404.934	3150.46
405.198	3257.46
405.461	3277.46
405.724	3324.46
405.987	3355.46
406.251	3429.46
406.514	3506.46
406.777	3375.46
407.04	3325.46
407.303	3336.46
407.567	3488.46
407.83	3550.46
408.093	3374.46
408.356	3510.46
408.619	3606.46
408.882	3640.46
409.145	3586.46
409.408	3551.46
409.672	3656.46
409.935	3546.46
410.198	3431.46
410.461	3548.46
410.724	3845.46
410.987	3788.46
411.25	3599.46
411.513	3759.46
411.776	3805.46
412.039	3662.46
412.302	3645.46
412.565	3740.46
412.828	3811.46
413.091	3776.46
413.354	3700.46
413.617	3680.46
413.879	3740.46
414.142	3744.46
414.405	3585.46
414.668	3619.46
414.931	3785.46
415.194	3775.46
415.457	3634.46
415.72	3693.46
415.983	3728.46
416.245	3787.46
416.508	3667.46
416.771	3571.46
417.034	3677.46
417.297	3732.46
417.559	3707.46
417.822	3668.46
418.085	3755.46
418.348	3753.46
418.61	3662.46
418.873	3640.46
419.136	3670.46
419.399	3655.46
419.661	3728.46
419.924	3691.46
420.187	3781.46
420.449	3774.46
420.712	3744.46
420.975	3718.46
421.237	3795.46
421.5	3852.46
421.762	3870.46
422.025	3859.46
422.288	3970.46
422.55	3815.46
422.813	3743.46
423.075	3844.46
423.338	3954.46
423.601	4004.46
423.863	3941.46
424.126	3986.46
424.388	4080.46
424.651	4062.46
424.913	4035.46
425.176	4074.46
425.438	4122.46
425.701	4116.46
425.963	4024.46
426.225	4011.46
426.488	4110.46
426.75	4110.46
427.013	4103.46
427.275	4154.46
427.538	4137.46
427.8	4180.46
428.062	4121.46
428.325	4136.46
428.587	4193.46
428.849	4212.46
429.112	4291.46
429.374	4260.46
429.636	4249.46
429.899	4357.46
430.161	4241.46
430.423	4311.46
430.686	4475.46
430.948	4444.46
431.21	4268.46
431.472	4241.46
431.735	4394.46
431.997	4424.46
432.259	4376.46
432.521	4232.46
432.783	4372.46
433.046	4378.46
433.308	4248.46
433.57	4310.46
433.832	4560.46
434.094	4393.46
434.356	4274.46
434.618	4361.46
434.881	4498.46
435.143	4600.46
435.405	4511.46
435.667	4475.46
435.929	4527.46
436.191	4507.46
436.453	4402.46
436.715	4506.46
436.977	4693.46
437.239	4767.46
437.501	4597.46
437.763	4616.46
438.025	4733.46
438.287	4697.46
438.549	4654.46
438.811	4619.46
439.073	4637.46
439.335	4708.46
439.597	4608.46
439.859	4535.46
440.121	4719.46
440.383	4640.46
440.645	4605.46
440.907	4676.46
441.168	4673.46
441.43	4662.46
441.692	4701.46
441.954	4750.46
442.216	4814.46
442.478	4735.46
442.74	4569.46
443.001	4731.46
443.263	4973.46
443.525	4760.46
443.787	4616.46
444.048	4591.46
444.31	4631.46
444.572	4745.46
444.834	4694.46
445.095	4686.46
445.357	4868.46
445.619	4682.46
445.881	4591.46
446.142	4697.46
446.404	4691.46
446.666	4690.46
446.927	4689.46
447.189	4837.46
447.451	4881.46
447.712	4704.46
447.974	4554.46
448.235	4587.46
448.497	4690.46
448.759	4659.46
449.02	4653.46
449.282	4564.46
449.543	4716.46
449.805	4796.46
450.066	4565.46
450.328	4664.46
450.59	4871.46
450.851	4698.46
451.113	4564.46
451.374	4495.46
451.636	4760.46
451.897	4846.46
452.158	4748.46
452.42	4772.46
452.681	4810.46
452.943	4621.46
453.204	4638.46
453.466	4642.46
453.727	4636.46
453.988	4702.46
454.25	4614.46
454.511	4663.46
454.773	4751.46
455.034	4890.46
455.295	4595.46
455.557	4748.46
455.818	4786.46
456.079	4724.46
456.341	4804.46
456.602	4864.46
456.863	4892.46
457.124	4764.46
457.386	4586.46
457.647	4612.46
457.908	4718.46
458.169	4854.46
458.431	4732.46
458.692	4840.46
458.953	4838.46
459.214	4796.46
459.476	4956.46
459.737	5096.46
459.998	5112.46
460.259	4971.46
460.52	4884.46
460.781	5056.46
461.043	5283.46
461.304	5159.46
461.565	4955.46
461.826	5026.46
462.087	5200.46
462.348	5360.46
462.609	5348.46
462.87	5255.46
463.131	5151.46
463.392	5402.46
463.653	5410.46
463.914	5399.46
464.175	5398.46
464.436	5461.46
464.697	5460.46
464.958	5284.46
465.219	5331.46
465.48	5447.46
465.741	5472.46
466.002	5369.46
466.263	5621.46
466.524	5640.46
466.785	5484.46
467.046	5578.46
467.307	5757.46
467.568	5885.46
467.829	5835.46
468.089	5785.46
468.35	5814.46
468.611	5745.46
468.872	5680.46
469.133	5936.46
469.394	6187.46
469.655	6302.46
469.915	6148.46
470.176	5905.46
470.437	6026.46
470.698	6201.46
470.958	6219.46
471.219	6245.46
471.48	6391.46
471.741	6558.46
472.001	6524.46
472.262	6539.46
472.523	6773.46
472.784	6870.46
473.044	6763.46
473.305	6821.46
473.566	6876.46
473.826	6990.46
474.087	6901.46
474.348	6942.46
474.608	7125.46
474.869	7188.46
475.129	7084.46
475.39	7207.46
475.651	7310.46
475.911	7462.46
476.172	7379.46
476.432	7508.46
476.693	7774.46
476.953	7620.46
477.214	7635.46
477.475	7689.46
477.735	7683.46
477.996	7851.46
478.256	7762.46
478.517	7912.46
478.777	8040.46
479.038	8144.46
479.298	8195.46
479.558	8256.46
479.819	8378.46
480.079	8379.46
480.34	8438.46
480.6	8409.46
480.861	8583.46
481.121	8634.46
481.381	8592.46
481.642	8670.46
481.902	8741.46
482.162	8756.46
482.423	8794.46
482.683	8927.46
482.943	9048.46
483.204	9015.46
483.464	8972.46
483.724	9022.46
483.985	9051.46
484.245	9153.46
484.505	9191.46
484.765	9284.46
485.026	9351.46
485.286	9476.46
485.546	9491.46
485.806	9498.46
486.067	9485.46
486.327	9477.46
486.587	9470.46
486.847	9541.46
487.107	9659.46
487.368	9752.46
487.628	9775.46
487.888	9823.46
488.148	9904.46
488.408	9706.46
488.668	9817.46
488.928	9883.46
489.188	9872.46
489.449	10011.46
489.709	9949.46
489.969	9981.46
490.229	10118.46
490.489	10063.46
490.749	9952.46
491.009	9906.46
491.269	10028.46
491.529	10078.46
491.789	10084.46
492.049	10209.46
492.309	10199.46
492.569	10106.46
492.829	10168.46
493.089	10109.46
493.349	10338.46
493.609	10325.46
493.869	10148.46
494.129	10294.46
494.389	10389.46
494.648	10299.46
494.908	10188.46
495.168	10328.46
495.428	10409.46
495.688	10351.46
495.948	10217.46
496.208	10245.46
496.467	10322.46
496.727	10372.46
496.987	10280.46
497.247	10319.46
497.507	10440.46
497.767	10458.46
498.026	10278.46
498.286	10435.46
498.546	10555.46
498.806	10388.46
499.065	10468.46
499.325	10407.46
499.585	10449.46
499.845	10514.46
500.104	10422.46
500.364	10442.46
500.624	10449.46
500.883	10378.46
501.143	10465.46
501.403	10494.46
501.662	10626.46
501.922	10590.46
502.182	10415.46
502.441	10396.46
502.701	10448.46
502.96	10535.46
503.22	10468.46
503.48	10377.46
503.739	10505.46
503.999	10422.46
504.258	10349.46
504.518	10461.46
504.777	10624.46
505.037	10630.46
505.296	10524.46
505.556	10460.46
505.815	10580.46
506.075	10627.46
506.334	10632.46
506.594	10512.46
506.853	10518.46
507.113	10480.46
507.372	10316.46
507.632	10423.46
507.891	10489.46
508.151	10527.46
508.41	10415.46
508.669	10427.46
508.929	10547.46
509.188	10453.46
509.447	10423.46
509.707	10414.46
509.966	10498.46
510.226	10585.46
510.485	10515.46
510.744	10555.46
511.004	10537.46
511.263	10418.46
511.522	10373.46
511.781	10436.46
512.041	10584.46
512.3	10571.46
512.559	10566.46
512.818	10572.46
513.078	10590.46
513.337	10631.46
513.596	10510.46
513.855	10537.46
514.115	10586.46
514.374	10548.46
514.633	10431.46
514.892	10455.46
515.151	10615.46
515.41	10679.46
515.67	10579.46
515.929	10559.46
516.188	10657.46
516.447	10551.46
516.706	10489.46
516.965	10614.46
517.224	10668.46
517.483	10632.46
517.743	10542.46
518.002	10654.46
518.261	10706.46
518.52	10717.46
518.779	10655.46
519.038	10662.46
519.297	10651.46
519.556	10670.46
519.815	10565.46
520.074	10576.46
520.333	10700.46
520.592	10720.46
520.851	10588.46
521.11	10692.46
521.369	10800.46
521.628	10654.46
521.887	10566.46
522.145	10615.46
522.404	10635.46
522.663	10679.46
522.922	10616.46
523.181	10642.46
523.44	10714.46
523.699	10721.46
523.958	10587.46
524.217	10548.46
524.475	10590.46
524.734	10614.46
524.993	10558.46
525.252	10560.46
525.511	10617.46
525.769	10615.46
526.028	10498.46
526.287	10583.46
526.546	10627.46
526.805	10589.46
527.063	10507.46
527.322	10523.46
527.581	10592.46
527.839	10592.46
528.098	10625.46
528.357	10562.46
528.616	10605.46
528.874	10595.46
529.133	10579.46
529.392	10587.46
529.65	10594.46
529.909	10571.46
530.168	10407.46
530.426	10513.46
530.685	10664.46
530.943	10595.46
531.202	10519.46
531.461	10490.46
531.719	10639.46
531.978	10582.46
532.236	10428.46
532.495	10566.46
532.753	10647.46
533.012	10635.46
533.271	10579.46
533.529	10469.46
533.788	10587.46
534.046	10487.46
534.305	10402.46
534.563	10644.46
534.822	10733.46
535.08	10645.46
535.338	10507.46
535.597	10547.46
535.855	10665.46
536.114	10619.46
536.372	10556.46
536.631	10633.46
536.889	10728.46
537.147	10673.46
537.406	10461.46
537.664	10606.46
537.923	10711.46
538.181	10739.46
538.439	10528.46
538.698	10639.46
538.956	10715.46
539.214	10640.46
539.473	10641.46
539.731	10736.46
539.989	10902.46
540.248	10765.46
540.506	10736.46
540.764	10793.46
541.022	10821.46
541.281	10935.46
541.539	10872.46
541.797	10720.46
542.055	10886.46
542.314	11013.46
542.572	11004.46
542.83	10886.46
543.088	11012.46
543.346	10983.46
543.604	10895.46
543.863	11002.46
544.121	11165.46
544.379	11168.46
544.637	11075.46
544.895	11213.46
545.153	11271.46
545.411	11102.46
545.67	11017.46
545.928	11181.46
546.186	11302.46
546.444	11364.46
546.702	11285.46
546.96	11372.46
547.218	11418.46
547.476	11405.46
547.734	11369.46
547.992	11469.46
548.25	11682.46
548.508	11609.46
548.766	11516.46
549.024	11561.46
549.282	11678.46
549.54	11755.46
549.798	11745.46
550.056	11746.46
550.314	11866.46
550.572	11866.46
550.83	11792.46
551.088	11959.46
551.346	12077.46
551.603	12097.46
551.861	12027.46
552.119	12092.46
552.377	12146.46
552.635	12105.46
552.893	12038.46
553.151	12148.46
553.409	12284.46
553.666	12323.46
553.924	12280.46
554.182	12260.46
554.44	12391.46
554.698	12537.46
554.955	12384.46
555.213	12345.46
555.471	12526.46
555.729	12506.46
555.986	12362.46
556.244	12485.46
556.502	12693.46
556.76	12626.46
557.017	12628.46
557.275	12683.46
557.533	12791.46
557.79	12725.46
558.048	12641.46
558.306	12800.46
558.563	12836.46
558.821	12831.46
559.079	12786.46
559.336	12842.46
559.594	12939.46
559.852	12879.46
560.109	12751.46
560.367	12938.46
560.624	12998.46
560.882	12939.46
561.14	12928.46
561.397	12995.46
561.655	12904.46
561.912	12976.46
562.17	12921.46
562.427	12991.46
562.685	13120.46
562.942	13088.46
563.2	13029.46
563.457	13036.46
563.715	13055.46
563.972	13153.46
564.23	13000.46
564.487	12951.46
564.745	13027.46
565.002	13069.46
565.26	12982.46
565.517	12965.46
565.774	13018.46
566.032	13113.46
566.289	13064.46
566.547	13075.46
566.804	13105.46
567.061	13074.46
567.319	12984.46
567.576	13080.46
567.833	13135.46
568.091	13164.46
568.348	13007.46
568.605	13018.46
568.863	13052.46
569.12	13016.46
569.377	12924.46
569.635	12880.46
569.892	12926.46
570.149	12915.46
570.406	12817.46
570.664	12775.46
570.921	12924.46
571.178	12811.46
571.435	12718.46
571.693	12770.46
571.95	12818.46
572.207	12720.46
572.464	12616.46
572.721	12650.46
572.979	12743.46
573.236	12695.46
573.493	12542.46
573.75	12554.46
574.007	12632.46
574.264	12484.46
574.521	12454.46
574.779	12412.46
575.036	12475.46
575.293	12446.46
575.55	12303.46
575.807	12175.46
576.064	12216.46
576.321	12233.46
576.578	12039.46
576.835	11986.46
577.092	12141.46
577.349	12062.46
577.606	11828.46
577.863	11777.46
578.12	11860.46
578.377	11847.46
578.634	11591.46
578.891	11631.46
579.148	11640.46
579.405	11582.46
579.662	11492.46
579.919	11483.46
580.176	11444.46
580.433	11381.46
580.69	11235.46
580.947	11172.46
581.204	11295.46
581.461	11206.46
581.717	10989.46
581.974	11039.46
582.231	11103.46
582.488	10942.46
582.745	10679.46
583.002	10709.46
583.259	10835.46
583.515	10738.46
583.772	10532.46
584.029	10601.46
584.286	10667.46
584.543	10347.46
584.799	10332.46
585.056	10382.46
585.313	10471.46
585.57	10410.46
585.826	10214.46
586.083	10250.46
586.34	10358.46
586.597	10110.46
586.853	9916.46
587.11	9901.46
587.367	10028.46
587.623	10007.46
587.88	9927.46
588.137	9733.46
588.393	9785.46
588.65	9686.46
588.907	9543.46
589.163	9609.46
589.42	9634.46
589.677	9542.46
589.933	9447.46
590.19	9435.46
590.446	9476.46
590.703	9400.46
590.96	9158.46
591.216	9173.46
591.473	9278.46
591.729	9216.46
591.986	9143.46
592.242	9164.46
592.499	9327.46
592.755	9117.46
593.012	8948.46
593.268	9032.46
593.525	9051.46
593.781	9056.46
594.038	8915.46
594.294	8956.46
594.551	8991.46
594.807	8847.46
595.064	8808.46
595.32	8818.46
595.576	8895.46
595.833	8889.46
596.089	8718.46
596.346	8849.46
596.602	8896.46
596.858	8929.46
597.115	8804.46
597.371	8817.46
597.628	8750.46
597.884	8692.46
598.14	8613.46
598.397	8728.46
598.653	8871.46
598.909	8764.46
599.166	8583.46
599.422	8570.46
599.678	8645.46
599.934	8676.46
600.191	8527.46
600.447	8608.46
600.703	8637.46
600.959	8582.46
601.216	8413.46
601.472	8438.46
601.728	8543.46
601.984	8506.46
602.241	8421.46
602.497	8515.46
602.753	8611.46
603.009	8456.46
603.265	8440.46
603.521	8592.46
603.778	8643.46
604.034	8447.46
604.29	8386.46
604.546	8405.46
604.802	8522.46
605.058	8475.46
605.314	8416.46
605.571	8454.46
605.827	8433.46
606.083	8377.46
606.339	8350.46
606.595	8457.46
606.851	8524.46
607.107	8499.46
607.363	8286.46
607.619	8308.46
607.875	8546.46
608.131	8475.46
608.387	8272.46
608.643	8257.46
608.899	8339.46
609.155	8310.46
609.411	8292.46
609.667	8296.46
609.923	8297.46
610.179	8253.46
610.435	8097.46
610.691	8159.46
610.947	8319.46
611.203	8263.46
611.459	8183.46
611.714	8223.46
611.97	8298.46
612.226	8239.46
612.482	8028.46
612.738	8138.46
612.994	8393.46
613.25	8214.46
613.505	7991.46
613.761	7970.46
614.017	8085.46
614.273	8096.46
614.529	8028.46
614.785	8004.46
615.04	8072.46
615.296	8048.46
615.552	7996.46
615.808	8044.46
616.063	8038.46
616.319	8032.46
616.575	7893.46
616.831	7943.46
617.086	8116.46
617.342	8039.46
617.598	7892.46
617.854	7931.46
618.109	7986.46
618.365	7808.46
618.621	7742.46
618.876	7856.46
619.132	7887.46
619.388	7764.46
619.643	7577.46
619.899	7699.46
620.155	7829.46
620.41	7820.46
620.666	7603.46
620.921	7601.46
621.177	7757.46
621.433	7770.46
621.688	7668.46
621.944	7627.46
622.199	7646.46
622.455	7583.46
622.71	7478.46
622.966	7533.46
623.221	7492.46
623.477	7493.46
623.732	7480.46
623.988	7405.46
624.243	7484.46
624.499	7459.46
624.754	7292.46
625.01	7364.46
625.265	7393.46
625.521	7442.46
625.776	7340.46
626.032	7366.46
626.287	7335.46
626.543	7257.46
626.798	7166.46
627.053	7180.46
627.309	7226.46
627.564	7111.46
627.82	7154.46
628.075	7215.46
628.33	7112.46
628.586	7003.46
628.841	6882.46
629.096	7004.46
629.352	7029.46
629.607	6947.46
629.862	6871.46
630.118	6975.46
630.373	6933.46
630.628	6960.46
630.884	6802.46
631.139	6852.46
631.394	6923.46
631.649	6878.46
631.905	6777.46
632.16	6825.46
632.415	6964.46
632.67	6821.46
632.926	6650.46
633.181	6610.46
633.436	6713.46
633.691	6645.46
633.946	6497.46
634.202	6498.46
634.457	6584.46
634.712	6563.46
634.967	6452.46
635.222	6435.46
635.477	6550.46
635.733	6491.46
635.988	6341.46
636.243	6410.46
636.498	6553.46
636.753	6468.46
637.008	6243.46
637.263	6341.46
637.518	6410.46
637.773	6326.46
638.028	6247.46
638.283	6250.46
638.539	6327.46
638.794	6284.46
639.049	6147.46
639.304	6124.46
639.559	6143.46
639.814	6104.46
640.069	5960.46
640.324	5980.46
640.579	6084.46
640.834	6064.46
641.089	5974.46
641.344	6026.46
641.598	6195.46
641.853	6073.46
642.108	5847.46
642.363	5794.46
642.618	6016.46
642.873	5906.46
643.128	5734.46
643.383	5740.46
643.638	5826.46
643.893	5907.46
644.148	5848.46
644.402	5709.46
644.657	5792.46
644.912	5693.46
645.167	5660.46
645.422	5786.46
645.677	5740.46
645.931	5746.46
646.186	5756.46
646.441	5615.46
646.696	5568.46
646.951	5568.46
647.205	5524.46
647.46	5490.46
647.715	5562.46
647.97	5748.46
648.224	5795.46
648.479	5614.46
648.734	5740.46
648.989	5649.46
649.243	5509.46
649.498	5460.46
649.753	5498.46
650.007	5576.46
650.262	5456.46
650.517	5418.46
650.771	5490.46
651.026	5416.46
651.281	5302.46
651.535	5407.46
651.79	5440.46
652.045	5414.46
652.299	5337.46
652.554	5317.46
652.809	5395.46
653.063	5512.46
653.318	5426.46
653.572	5300.46
653.827	5407.46
654.081	5318.46
654.336	5178.46
654.591	5228.46
654.845	5332.46
655.1	5278.46
655.354	5187.46
655.609	5250.46
655.863	5335.46
656.118	5315.46
656.372	5162.46
656.627	5197.46
656.881	5311.46
657.136	5188.46
657.39	5047.46
657.645	5242.46
657.899	5365.46
658.153	5188.46
658.408	5057.46
658.662	5141.46
658.917	5211.46
659.171	5095.46
659.426	4970.46
659.68	5060.46
659.934	5194.46
660.189	5160.46
660.443	5052.46
660.697	5190.46
660.952	5220.46
661.206	5141.46
661.46	4968.46
661.715	5030.46
661.969	5172.46
662.223	5147.46
662.478	5061.46
662.732	5100.46
662.986	5149.46
663.241	5181.46
663.495	5074.46
663.749	5106.46
664.003	5250.46
664.258	5124.46
664.512	4999.46
664.766	5047.46
665.02	5135.46
665.275	5139.46
665.529	5001.46
665.783	5060.46
666.037	5163.46
666.291	5155.46
666.546	5048.46
666.8	5049.46
667.054	5022.46
667.308	5075.46
667.562	4944.46
667.816	5031.46
668.071	5154.46
668.325	5061.46
668.579	5087.46
668.833	5090.46
669.087	5249.46
669.341	5146.46
669.595	5043.46
669.849	5144.46
670.103	5150.46
670.357	5135.46
670.612	5108.46
670.866	5118.46
671.12	5208.46
671.374	5184.46
671.628	5110.46
671.882	5094.46
672.136	5199.46
672.39	5206.46
672.644	5039.46
672.898	5239.46
673.152	5347.46
673.406	5274.46
673.66	5206.46
673.914	5270.46
674.168	5343.46
674.422	5273.46
674.675	5133.46
674.929	5220.46
675.183	5315.46
675.437	5268.46
675.691	5257.46
675.945	5345.46
676.199	5461.46
676.453	5338.46
676.707	5189.46
676.961	5247.46
677.214	5317.46
677.468	5331.46
677.722	5392.46
677.976	5342.46
678.23	5448.46
678.484	5433.46
678.737	5318.46
678.991	5341.46
679.245	5436.46
679.499	5412.46
679.753	5353.46
680.006	5399.46
680.26	5529.46
680.514	5528.46
680.768	5352.46
681.021	5452.46
681.275	5531.46
681.529	5519.46
681.783	5485.46
682.036	5527.46
682.29	5508.46
682.544	5512.46
682.797	5438.46
683.051	5433.46
683.305	5570.46
683.559	5578.46
683.812	5567.46
684.066	5587.46
684.32	5676.46
684.573	5686.46
684.827	5709.46
685.08	5693.46
685.334	5732.46
685.588	5614.46
685.841	5521.46
686.095	5721.46
686.348	5726.46
686.602	5644.46
686.856	5643.46
687.109	5604.46
687.363	5703.46
687.616	5637.46
687.87	5525.46
688.123	5586.46
688.377	5703.46
688.63	5764.46
688.884	5735.46
689.137	5825.46
689.391	5847.46
689.644	5700.46
689.898	5641.46
690.151	5688.46
690.405	5810.46
690.658	5726.46
690.912	5661.46
691.165	5644.46
691.419	5758.46
691.672	5829.46
691.926	5750.46
692.179	5772.46
692.432	5850.46
692.686	5785.46
692.939	5696.46
693.193	5755.46
693.446	5844.46
693.699	5807.46
693.953	5808.46
694.206	5837.46
694.459	5934.46
694.713	5957.46
694.966	5793.46
695.219	5768.46
695.473	5855.46
695.726	5803.46
695.979	5775.46
696.233	5830.46
696.486	5850.46
696.739	5819.46
696.992	5752.46
697.246	5842.46
697.499	5943.46
697.752	5768.46
698.006	5704.46
698.259	5850.46
698.512	5856.46
698.765	5775.46
699.018	5748.46
699.272	5825.46
699.525	5836.46
699.778	5761.46
700.031	5737.46
700.284	5755.46
700.538	5881.46
700.791	5825.46
701.044	5752.46
701.297	5773.46
701.55	5757.46
701.803	5728.46
702.056	5652.46
702.31	5735.46
702.563	5850.46
702.816	5767.46
703.069	5631.46
703.322	5731.46
703.575	5779.46
703.828	5778.46
704.081	5699.46
704.334	5712.46
704.587	5769.46
704.84	5744.46
705.093	5746.46
705.346	5856.46
705.599	5797.46
705.853	5742.46
706.106	5790.46
706.359	6077.46
706.612	5774.46
706.865	5827.46
707.118	5667.46
707.37	5724.46
707.623	5858.46
707.876	5762.46
708.129	5659.46
708.382	5771.46
708.635	5896.46
708.888	5741.46
709.141	5565.46
709.394	5683.46
709.647	5818.46
709.9	5612.46
710.153	5485.46
710.406	5643.46
710.658	5775.46
710.911	5689.46
711.164	5529.46
711.417	5558.46
711.67	5611.46
711.923	5646.46
712.176	5537.46
712.428	5547.46
712.681	5629.46
712.934	5651.46
713.187	5533.46
713.44	5490.46
713.692	5613.46
713.945	5554.46
714.198	5449.46
714.451	5406.46
714.704	5554.46
714.956	5556.46
715.209	5552.46
715.462	5487.46
715.715	5493.46
715.967	5503.46
716.22	5346.46
716.473	5404.46
716.725	5582.46
716.978	5524.46
717.231	5417.46
717.484	5415.46
717.736	5350.46
717.989	5302.46
718.242	5263.46
718.494	5323.46
718.747	5396.46
718.999	5335.46
719.252	5354.46
719.505	5345.46
719.757	5364.46
720.01	5295.46
720.263	5196.46
720.515	5239.46
720.768	5333.46
721.02	5280.46
721.273	5156.46
721.525	5140.46
721.778	5225.46
722.031	5334.46
722.283	5178.46
722.536	5109.46
722.788	5188.46
723.041	5130.46
723.293	5061.46
723.546	5029.46
723.798	5047.46
724.051	5114.46
724.303	5134.46
724.556	5108.46
724.808	5206.46
725.061	5148.46
725.313	5072.46
725.566	5038.46
725.818	5049.46
726.071	5002.46
726.323	4885.46
726.575	4943.46
726.828	5096.46
727.08	5076.46
727.333	4884.46
727.585	4923.46
727.837	4980.46
728.09	4942.46
728.342	4803.46
728.595	4891.46
728.847	5047.46
729.099	4812.46
729.352	4818.46
729.604	4810.46
729.856	4868.46
730.109	4842.46
730.361	4755.46
730.613	4894.46
730.866	4949.46
731.118	4818.46
731.37	4728.46
731.622	4694.46
731.875	4710.46
732.127	4750.46
732.379	4758.46
732.631	4826.46
732.884	4782.46
733.136	4715.46
733.388	4601.46
733.64	4669.46
733.893	4809.46
734.145	4712.46
734.397	4522.46
734.649	4504.46
734.901	4643.46
735.154	4513.46
735.406	4437.46
735.658	4489.46
735.91	4636.46
736.162	4564.46
736.414	4449.46
736.667	4544.46
736.919	4547.46
737.171	4432.46
737.423	4397.46
737.675	4425.46
737.927	4518.46
738.179	4483.46
738.431	4437.46
738.684	4351.46
738.936	4398.46
739.188	4453.46
739.44	4265.46
739.692	4340.46
739.944	4310.46
740.196	4312.46
740.448	4255.46
740.7	4265.46
740.952	4299.46
741.204	4319.46
741.456	4212.46
741.708	4244.46
741.96	4261.46
742.212	4342.46
742.464	4319.46
742.716	4179.46
742.968	4230.46
743.22	4179.46
743.472	4120.46
743.724	4213.46
743.976	4329.46
744.228	4292.46
744.48	4074.46
744.732	4068.46
744.983	4223.46
745.235	4199.46
745.487	4124.46
745.739	4183.46
745.991	4192.46
746.243	4224.46
746.495	4055.46
746.747	4094.46
746.999	4191.46
747.25	4200.46
747.502	4141.46
747.754	4152.46
748.006	4139.46
748.258	4244.46
748.51	4268.46
748.761	4113.46
749.013	4135.46
749.265	4175.46
749.517	4153.46
749.768	4213.46
750.02	4199.46
750.272	4131.46
750.524	3963.46
750.776	3934.46
751.027	4139.46
751.279	4153.46
751.531	3918.46
751.782	4039.46
752.034	4128.46
752.286	3995.46
752.538	3834.46
752.789	3936.46
753.041	4040.46
753.293	4004.46
753.544	3890.46
753.796	3915.46
754.048	4013.46
754.299	3982.46
754.551	3907.46
754.803	3858.46
755.054	3930.46
755.306	3959.46
755.558	3860.46
755.809	3862.46
756.061	3992.46
756.312	3923.46
756.564	3861.46
756.816	3872.46
757.067	3871.46
757.319	3815.46
757.57	3784.46
757.822	3862.46
758.073	3942.46
758.325	3877.46
758.577	3737.46
758.828	3758.46
759.08	3982.46
759.331	3960.46
759.583	3705.46
759.834	3771.46
760.086	3731.46
760.337	3715.46
760.589	3688.46
760.84	3684.46
761.092	3775.46
761.343	3718.46
761.595	3536.46
761.846	3720.46
762.097	3723.46
762.349	3671.46
762.6	3494.46
762.852	3626.46
763.103	3791.46
763.355	3650.46
763.606	3544.46
763.857	3677.46
764.109	3773.46
764.36	3599.46
764.612	3527.46
764.863	3649.46
765.114	3645.46
765.366	3496.46
765.617	3413.46
765.868	3483.46
766.12	3662.46
766.371	3661.46
766.622	3443.46
766.874	3524.46
767.125	3629.46
767.376	3518.46
767.628	3415.46
767.879	3499.46
768.13	3562.46
768.381	3549.46
768.633	3503.46
768.884	3507.46
769.135	3561.46
769.386	3517.46
769.638	3445.46
769.889	3462.46
770.14	3508.46
770.391	3394.46
770.643	3333.46
770.894	3318.46
771.145	3416.46
771.396	3374.46
771.647	3277.46
771.899	3389.46
772.15	3479.46
772.401	3408.46
772.652	3249.46
772.903	3292.46
773.154	3627.46
773.406	3835.46
773.657	3287.46
773.908	3268.46
774.159	3374.46
774.41	3405.46
774.661	3212.46
774.912	3262.46
775.163	3413.46
775.414	3386.46
775.666	3143.46
775.917	3197.46
776.168	3230.46
776.419	3181.46
776.67	3117.46
776.921	3165.46
777.172	3218.46
777.423	3202.46
777.674	3227.46
777.925	3202.46
778.176	3166.46
778.427	3156.46
778.678	3045.46
778.929	3089.46
779.18	3206.46
779.431	3111.46
779.682	3104.46
779.933	3120.46
780.184	3152.46
780.435	3121.46
780.686	3083.46
780.937	3144.46
781.188	3200.46
781.439	3236.46
781.69	3114.46
781.941	3089.46
782.191	3123.46
782.442	3084.46
782.693	2992.46
782.944	2965.46
783.195	3066.46
783.446	3070.46
783.697	3073.46
783.948	2978.46
784.199	3002.46
784.449	2944.46
784.7	2921.46
784.951	2985.46
785.202	3154.46
785.453	3091.46
785.704	2884.46
785.954	2887.46
786.205	2958.46
786.456	2891.46
786.707	2783.46
786.958	2822.46
787.208	2955.46
787.459	2919.46
787.71	2915.46
787.961	2889.46
788.211	2914.46
788.462	2868.46
788.713	2835.46
788.964	2821.46
789.214	2908.46
789.465	2927.46
789.716	2825.46
789.967	2860.46
790.217	2860.46
790.468	2800.46
790.719	2788.46
790.969	2823.46
791.22	2849.46
791.471	2902.46
791.721	2901.46
791.972	2815.46
792.223	2858.46
792.473	2755.46
792.724	2749.46
792.975	2748.46
793.225	2814.46
793.476	2733.46
793.726	2665.46
793.977	2787.46
794.228	2918.46
794.478	2776.46
794.729	2693.46
794.979	2790.46
795.23	2823.46
795.481	2744.46
795.731	2622.46
795.982	2666.46
796.232	2686.46
796.483	2650.46
796.733	2592.46
796.984	2632.46
797.234	2706.46
797.485	2715.46
797.735	2588.46
797.986	2624.46
798.236	2714.46
798.487	2633.46
798.737	2622.46
798.988	2679.46
799.238	2760.46
799.489	2643.46
799.739	2511.46
799.99	2586.46
800.24	2684.46
800.491	2727.46
800.741	2597.46
800.991	2493.46
801.242	2579.46
801.492	2611.46
801.743	2544.46
801.993	2778.46
802.244	2984.46
802.494	2632.46
802.744	2536.46
802.995	2547.46
803.245	2587.46
803.495	2530.46
803.746	2485.46
803.996	2570.46
804.246	2537.46
804.497	2534.46
804.747	2411.46
804.997	2510.46
805.248	2514.46
805.498	2461.46
805.748	2500.46
805.999	2384.46
806.249	2422.46
806.499	2438.46
806.75	2365.46
807	2390.46
807.25	2475.46
807.5	2426.46
807.751	2438.46
808.001	2452.46
808.251	2451.46
808.501	2567.46
808.752	2530.46
809.002	2453.46
809.252	2427.46
809.502	2382.46
809.752	2324.46
810.003	2295.46
810.253	2382.46
810.503	2418.46
810.753	2436.46
811.003	2438.46
811.254	2460.46
811.504	2355.46
811.754	2325.46
812.004	2375.46
812.254	2571.46
812.504	2381.46
812.754	2306.46
813.005	2394.46
813.255	2474.46
813.505	2412.46
813.755	2314.46
814.005	2362.46
814.255	2382.46
814.505	2347.46
814.755	2232.46
815.005	2247.46
815.255	2361.46
815.505	2289.46
815.756	2311.46
816.006	2300.46
816.256	2238.46
816.506	2221.46
816.756	2158.46
817.006	2190.46
817.256	2266.46
817.506	2273.46
817.756	2247.46
818.006	2244.46
818.256	2262.46
818.506	2264.46
818.756	2114.46
819.006	2158.46
819.256	2239.46
819.506	2188.46
819.756	2122.46
820.006	2241.46
820.255	2312.46
820.505	2229.46
820.755	2119.46
821.005	2152.46
821.255	2249.46
821.505	2211.46
821.755	2142.46
822.005	2208.46
822.255	2265.46
822.505	2180.46
822.755	2227.46
823.004	2117.46
823.254	2115.46
823.504	2189.46
823.754	2175.46
824.004	2106.46
824.254	2182.46
824.504	2184.46
824.753	2249.46
825.003	2228.46
825.253	2255.46
825.503	2163.46
825.753	2104.46
826.002	2163.46
826.252	2354.46
826.502	2144.46
826.752	2048.46
827.002	2071.46
827.251	2180.46
827.501	2144.46
827.751	2028.46
828.001	2059.46
828.25	2169.46
828.5	2019.46
828.75	1988.46
829	2088.46
829.249	2211.46
829.499	2044.46
829.749	2032.46
829.998	2087.46
830.248	2115.46
830.498	1980.46
830.748	1997.46
830.997	2046.46
831.247	2118.46
831.497	2120.46
831.746	2034.46
831.996	2095.46
832.246	2200.46
832.495	2195.46
832.745	1957.46
832.994	1962.46
833.244	2125.46
833.494	2012.46
833.743	1901.46
833.993	1954.46
834.243	2026.46
834.492	2026.46
834.742	2016.46
834.991	1971.46
835.241	2141.46
835.49	2016.46
835.74	1864.46
835.99	1963.46
836.239	2085.46
836.489	2080.46
836.738	1959.46
836.988	1823.46
837.237	1966.46
837.487	2074.46
837.736	1919.46
837.986	1874.46
838.235	1960.46
838.485	1938.46
838.734	1930.46
838.984	2002.46
839.233	1936.46
839.483	1829.46
839.732	1784.46
839.982	1863.46
840.231	1966.46
840.481	1972.46
840.73	1818.46
840.979	1871.46
841.229	1915.46
841.478	1881.46
841.728	1778.46
841.977	1759.46
842.227	1810.46
842.476	1772.46
842.725	1734.46
842.975	1772.46
843.224	1890.46
843.474	1961.46
843.723	1826.46
843.972	1813.46
844.222	1858.46
844.471	1891.46
844.72	1771.46
844.97	1768.46
845.219	1865.46
845.468	1862.46
845.718	1784.46
845.967	1787.46
846.216	1824.46
846.466	1872.46
846.715	1749.46
846.964	1763.46
847.214	1749.46
847.463	1720.46
847.712	1719.46
847.961	1713.46
848.211	1798.46
848.46	1779.46
848.709	1703.46
848.958	1688.46
849.208	1732.46
849.457	1714.46
849.706	1736.46
849.955	1665.46
850.205	1658.46
850.454	1784.46
850.703	1798.46
850.952	1751.46
851.201	1780.46
851.451	1740.46
851.7	1741.46
851.949	1594.46
852.198	1700.46
852.447	1672.46
852.696	1607.46
852.946	1670.46
853.195	1742.46
853.444	1715.46
853.693	1556.46
853.942	1559.46
854.191	1647.46
854.44	1658.46
854.689	1618.46
854.939	1570.46
855.188	1561.46
855.437	1579.46
855.686	1584.46
855.935	1596.46
856.184	1659.46
856.433	1716.46
856.682	1638.46
856.931	1610.46
857.18	1617.46
857.429	1539.46
857.678	1514.46
857.927	1553.46
858.176	1571.46
858.425	1535.46
858.674	1463.46
858.924	1531.46
859.173	1535.46
859.422	1566.46
859.671	1456.46
859.92	1517.46
860.169	1525.46
860.417	1570.46
860.666	1489.46
860.915	1427.46
861.164	1486.46
861.413	1451.46
861.662	1380.46
861.911	1446.46
862.16	1574.46
862.409	1516.46
862.658	1351.46
862.907	1391.46
863.156	1493.46
863.405	1469.46
863.654	1376.46
863.903	1348.46
864.151	1443.46
864.4	1483.46
864.649	1438.46
864.898	1428.46
865.147	1492.46
865.396	1535.46
865.645	1400.46
865.894	1420.46
866.142	1541.46
866.391	1466.46
866.64	1349.46
866.889	1435.46
867.138	1601.46
867.387	1487.46
867.635	1355.46
867.884	1417.46
868.133	1508.46
868.382	1442.46
868.631	1322.46
868.879	1339.46
869.128	1421.46
869.377	1382.46
869.626	1345.46
869.874	1354.46
870.123	1441.46
870.372	1379.46
870.621	1265.46
870.869	1278.46
871.118	1408.46
871.367	1400.46
871.616	1270.46
871.864	1381.46
872.113	1423.46
872.362	1382.46
872.61	1311.46
872.859	1356.46
873.108	1402.46
873.357	1302.46
873.605	1215.46
873.854	1249.46
874.103	1274.46
874.351	1257.46
874.6	1250.46
874.848	1280.46
875.097	1337.46
875.346	1333.46
875.594	1218.46
875.843	1310.46
876.092	1439.46
876.34	1310.46
876.589	1229.46
876.837	1125.46
877.086	1200.46
877.335	1278.46
877.583	1233.46
877.832	1257.46
878.08	1365.46
878.329	1293.46
878.578	1231.46
878.826	1220.46
879.075	1312.46
879.323	1309.46
879.572	1209.46
879.82	1308.46
880.069	1282.46
880.317	1295.46
880.566	1167.46
880.814	1238.46
881.063	1341.46
881.311	1256.46
881.56	1284.46
881.808	1177.46
882.057	1241.46
882.305	1218.46
882.554	1253.46
882.802	1147.46
883.051	1197.46
883.299	1196.46
883.548	1135.46
883.796	1228.46
884.045	1221.46
884.293	1140.46
884.541	1028.46
884.79	1006.46
885.038	1131.46
885.287	1151.46
885.535	1149.46
885.783	1168.46
886.032	1097.46
886.28	1063.46
886.529	1021.46
886.777	1080.46
887.025	1229.46
887.274	1112.46
887.522	1050.46
887.77	1091.46
888.019	1102.46
888.267	1072.46
888.516	1006.46
888.764	1025.46
889.012	1111.46
889.261	1095.46
889.509	996.46
889.757	1025.46
890.005	1071.46
890.254	1003.46
890.502	1047.46
890.75	1277.46
890.999	1246.46
891.247	1108.46
891.495	1056.46
891.743	1016.46
891.992	1172.46
892.24	1080.46
892.488	989.46
892.737	988.46
892.985	1053.46
893.233	1071.46
893.481	990.46
893.729	971.46
893.978	1134.46
894.226	1152.46
894.474	995.46
894.722	991.46
894.97	1015.46
895.219	975.46
895.467	997.46
895.715	1041.46
895.963	1017.46
896.211	967.46
896.46	886.46
896.708	988.46
896.956	1077.46
897.204	1145.46
897.452	1031.46
897.7	980.46
897.948	1061.46
898.197	968.46
898.445	908.46
898.693	926.46
898.941	996.46
899.189	980.46
899.437	912.46
899.685	1005.46
899.933	967.46
900.181	966.46
900.43	914.46
900.678	930.46
900.926	992.46
901.174	934.46
901.422	876.46
901.67	920.46
901.918	979.46
902.166	913.46
902.414	794.46
902.662	838.46
902.91	947.46
903.158	932.46
903.406	873.46
903.654	869.46
903.902	896.46
904.15	871.46
904.398	766.46
904.646	877.46
904.894	954.46
905.142	954.46
905.39	914.46
905.638	840.46
905.886	851.46
906.134	832.46
906.382	855.46
906.63	813.46
906.878	898.46
907.126	881.46
907.374	816.46
907.622	828.46
907.869	921.46
908.117	880.46
908.365	792.46
908.613	784.46
908.861	796.46
909.109	757.46
909.357	727.46
909.605	794.46
909.853	870.46
910.1	801.46
910.348	646.46
910.596	700.46
910.844	868.46
911.092	911.46
911.34	783.46
911.588	811.46
911.835	866.46
912.083	805.46
912.331	774.46
912.579	803.46
912.827	957.46
913.075	852.46
913.322	727.46
913.57	738.46
913.818	874.46
914.066	803.46
914.313	733.46
914.561	822.46
914.809	828.46
915.057	754.46
915.305	741.46
915.552	716.46
915.8	807.46
916.048	740.46
916.296	679.46
916.543	792.46
916.791	877.46
917.039	775.46
917.286	648.46
917.534	662.46
917.782	790.46
918.03	720.46
918.277	598.46
918.525	629.46
918.773	749.46
919.02	724.46
919.268	649.46
919.516	690.46
919.763	688.46
920.011	694.46
920.259	590.46
920.506	692.46
920.754	780.46
921.002	778.46
921.249	704.46
921.497	657.46
921.745	687.46
921.992	721.46
922.24	602.46
922.487	706.46
922.735	863.46
922.983	792.46
923.23	693.46
923.478	626.46
923.725	716.46
923.973	725.46
924.221	686.46
924.468	719.46
924.716	705.46
924.963	682.46
925.211	603.46
925.458	682.46
925.706	791.46
925.953	814.46
926.201	611.46
926.448	620.46
926.696	722.46
926.944	694.46
927.191	631.46
927.439	612.46
927.686	651.46
927.934	677.46
928.181	548.46
928.429	566.46
928.676	620.46
928.923	534.46
929.171	485.46
929.418	633.46
929.666	708.46
929.913	694.46
930.161	493.46
930.408	535.46
930.656	606.46
930.903	631.46
931.151	507.46
931.398	568.46
931.645	675.46
931.893	563.46
932.14	540.46
932.388	562.46
932.635	700.46
932.882	748.46
933.13	599.46
933.377	517.46
933.625	623.46
933.872	535.46
934.119	465.46
934.367	521.46
934.614	504.46
934.861	494.46
935.109	523.46
935.356	573.46
935.603	596.46
935.851	543.46
936.098	490.46
936.345	603.46
936.593	610.46
936.84	551.46
937.087	408.46
937.335	486.46
937.582	560.46
937.829	561.46
938.077	530.46
938.324	503.46
938.571	577.46
938.818	491.46
939.066	461.46
939.313	447.46
939.56	559.46
939.807	567.46
940.055	436.46
940.302	459.46
940.549	646.46
940.796	567.46
941.044	487.46
941.291	512.46
941.538	669.46
941.785	527.46
942.033	453.46
942.28	536.46
942.527	560.46
942.774	536.46
943.021	396.46
943.269	437.46
943.516	549.46
943.763	554.46
944.01	471.46
944.257	554.46
944.504	604.46
944.752	557.46
944.999	512.46
945.246	428.46
945.493	498.46
945.74	493.46
945.987	414.46
946.234	507.46
946.482	585.46
946.729	461.46
946.976	393.46
947.223	432.46
947.47	586.46
947.717	547.46
947.964	549.46
948.211	502.46
948.458	562.46
948.705	508.46
948.952	396.46
949.2	482.46
949.447	590.46
949.694	549.46
949.941	418.46
950.188	404.46
950.435	418.46
950.682	448.46
950.929	329.46
951.176	366.46
951.423	525.46
951.67	500.46
951.917	468.46
952.164	468.46
952.411	543.46
952.658	573.46
952.905	424.46
953.152	359.46
953.399	465.46
953.646	455.46
953.893	352.46
954.14	388.46
954.387	429.46
954.634	438.46
954.881	390.46
955.128	451.46
955.375	434.46
955.622	456.46
955.869	453.46
956.115	391.46
956.362	472.46
956.609	457.46
956.856	380.46
957.103	360.46
957.35	461.46
957.597	483.46
957.844	394.46
958.091	384.46
958.338	480.46
958.585	425.46
958.831	233.46
959.078	320.46
959.325	484.46
959.572	365.46
959.819	283.46
960.066	266.46
960.313	383.46
960.559	364.46
960.806	249.46
961.053	305.46
961.3	442.46
961.547	463.46
961.794	284.46
962.04	451.46
962.287	482.46
962.534	336.46
962.781	306.46
963.028	368.46
963.274	494.46
963.521	406.46
963.768	323.46
964.015	354.46
964.262	493.46
964.508	338.46
964.755	249.46
965.002	270.46
965.249	314.46
965.495	266.46
965.742	240.46
965.989	258.46
966.236	392.46
966.482	327.46
966.729	267.46
966.976	244.46
967.222	307.46
967.469	311.46
967.716	240.46
967.963	250.46
968.209	336.46
968.456	300.46
968.703	213.46
968.949	307.46
969.196	462.46
969.443	467.46
969.689	243.46
969.936	203.46
970.183	304.46
970.429	228.46
970.676	203.46
970.923	291.46
971.169	354.46
971.416	267.46
971.663	239.46
971.909	279.46
972.156	324.46
972.402	322.46
972.649	253.46
972.896	290.46
973.142	318.46
973.389	333.46
973.635	225.46
973.882	332.46
974.129	418.46
974.375	290.46
974.622	189.46
974.868	190.46
975.115	263.46
975.361	242.46
975.608	196.46
975.855	312.46
976.101	361.46
976.348	295.46
976.594	224.46
976.841	268.46
977.087	258.46
977.334	292.46
977.58	150.46
977.827	166.46
978.073	323.46
978.32	288.46
978.566	146.46
978.813	240.46
979.059	288.46
979.306	261.46
979.552	148.46
979.799	221.46
980.045	226.46
980.292	239.46
980.538	185.46
980.785	163.46
981.031	173.46
981.278	167.46
981.524	123.46
981.771	276.46
982.017	399.46
982.263	301.46
982.51	172.46
982.756	254.46
983.003	306.46
983.249	234.46
983.495	155.46
983.742	165.46
983.988	221.46
984.235	237.46
984.481	135.46
984.727	146.46
984.974	258.46
985.22	243.46
985.467	172.46
985.713	176.46
985.959	288.46
986.206	269.46
986.452	190.46
986.698	210.46
986.945	233.46
987.191	280.46
987.437	282.46
987.684	225.46
987.93	367.46
988.176	275.46
988.423	99.46
988.669	186.46
988.915	353.46
989.162	203.46
989.408	86.46
989.654	152.46
989.901	193.46
990.147	196.46
990.393	177.46
990.639	244.46
990.886	265.46
991.132	313.46
991.378	271.46
991.625	405.46
991.871	354.46
992.117	273.46
992.363	205.46
992.61	232.46
992.856	342.46
993.102	195.46
993.348	132.46
993.594	166.46
993.841	188.46
994.087	326.46
994.333	196.46
994.579	171.46
994.826	216.46
995.072	228.46
995.318	52.46
995.564	97.46
995.81	219.46
996.057	168.46
996.303	62.46
996.549	68.46
996.795	184.46
997.041	165.46
997.287	136.46
997.534	130.46
997.78	203.46
998.026	209.46
998.272	83.46
998.518	77.46
998.764	230.46
999.01	258.46
999.256	152.46
999.503	107.46
999.749	130.46
999.995	92.46
1000.241	73.46
1000.487	150.46
1000.733	199.46
1000.979	163.46
1001.225	131.46
1001.471	203.46
1001.718	236.46
1001.964	264.46
1002.21	103.46
1002.456	134.46
1002.702	289.46
1002.948	187.46
1003.194	115.46
1003.44	92.46
1003.686	178.46
1003.932	122.46
1004.178	76.46
1004.424	148.46
1004.67	284.46
1004.916	269.46
1005.162	155.46
1005.408	109.46
1005.654	243.46
1005.9	71.46
1006.146	26.46
1006.392	119.46
1006.638	198.46
1006.884	150.46
1007.13	74.46
1007.376	43.46
1007.622	238.46
1007.868	227.46
1008.114	95.46
1008.36	149.46
1008.606	191.46
1008.852	222.46
1009.098	161.46
1009.344	197.46
1009.59	166.46
1009.836	49.46
1010.082	-17.54
1010.328	83.46
1010.574	159.46
1010.82	66.46
1011.065	-5.54
1011.311	7.46
1011.557	116.46
1011.803	97.46
1012.049	26.46
1012.295	79.46
1012.541	100.46
1012.787	118.46
1013.033	-12.54
1013.278	0.46
1013.524	131.46
1013.77	192.46
1014.016	77.46
1014.262	82.46
1014.508	196.46
1014.754	20.46
1015	8.46
1015.245	181.46
1015.491	187.46
1015.737	172.46
1015.983	37.46
1016.229	-1.54
1016.475	117.46
1016.72	228.46
1016.966	252.46
1017.212	129.46
1017.458	183.46
1017.704	118.46
1017.949	-22.54
1018.195	136.46
1018.441	252.46
1018.687	210.46
1018.933	62.46
1019.178	55.46
1019.424	211.46
1019.67	222.46
1019.916	8.46
1020.161	45.46
1020.407	114.46
1020.653	65.46
1020.899	-14.54
1021.144	74.46
1021.39	155.46
1021.636	36.46
1021.882	-45.54
1022.127	78.46
1022.373	221.46
1022.619	142.46
1022.865	52.46
1023.11	54.46
1023.356	188.46
1023.602	105.46
1023.847	31.46
1024.093	75.46
1024.339	43.46
1024.584	40.46
1024.83	7.46
1025.076	20.46
1025.321	131.46
1025.567	94.46
1025.813	5.46
1026.058	83.46
1026.304	142.46
1026.55	50.46
1026.795	28.46
1027.041	36.46
1027.287	101.46
1027.532	126.46
1027.778	94.46
1028.024	67.46
1028.269	82.46
1028.515	-21.54
1028.76	-46.54
1029.006	50.46
1029.252	149.46
1029.497	58.46
1029.743	52.46
1029.989	-5.54
1030.234	123.46
1030.48	190.46
1030.725	-14.54
1030.971	32.46
1031.216	173.46
1031.462	78.46
1031.708	-65.54
1031.953	-8.54
1032.199	71.46
1032.444	86.46
1032.69	24.46
1032.935	20.46
1033.181	147.46
1033.426	25.46
1033.672	-106.54
1033.918	-58.54
1034.163	40.46
1034.409	30.46
1034.654	-6.54
1034.9	101.46
1035.145	129.46
1035.391	58.46
1035.636	-66.54
1035.882	13.46
1036.127	25.46
1036.373	-11.54
1036.618	-105.54
1036.864	-8.54
1037.109	131.46
1037.355	38.46
1037.6	-31.54
1037.845	7.46
1038.091	195.46
1038.336	156.46
1038.582	152.46
1038.827	221.46
1039.073	74.46
1039.318	2.46
1039.564	-103.54
1039.809	-32.54
1040.055	147.46
1040.3	128.46
1040.545	-29.54
1040.791	-33.54
1041.036	40.46
1041.282	80.46
1041.527	119.46
1041.772	-44.54
1042.018	15.46
1042.263	50.46
1042.509	-98.54
1042.754	-61.54
1042.999	62.46
1043.245	23.46
1043.49	-128.54
1043.736	-40.54
1043.981	36.46
1044.226	57.46
1044.472	34.46
1044.717	31.46
1044.962	127.46
1045.208	46.46
1045.453	-176.54
1045.698	-97.54
1045.944	110.46
1046.189	47.46
1046.434	-47.54
1046.68	-26.54
1046.925	151.46
1047.17	-1.54
1047.416	-164.54
1047.661	-69.54
1047.906	70.46
1048.152	59.46
1048.397	-20.54
1048.642	-48.54
1048.887	132.46
1049.133	139.46
1049.378	-44.54
1049.623	-58.54
1049.869	64.46
1050.114	-7.54
1050.359	-64.54
1050.604	14.46
1050.85	159.46
1051.095	31.46
1051.34	-56.54
1051.585	-2.54
1051.831	170.46
1052.076	20.46
1052.321	-176.54
1052.566	-61.54
1052.812	123.46
1053.057	19.46
1053.302	-48.54
1053.547	47.46
1053.792	107.46
1054.038	77.46
1054.283	-110.54
1054.528	-27.54
1054.773	36.46
1055.018	16.46
1055.264	-89.54
1055.509	-104.54
1055.754	26.46
1055.999	-36.54
1056.244	-115.54
1056.49	-45.54
1056.735	20.46
1056.98	-24.54
1057.225	-125.54
1057.47	57.46
1057.715	-7.54
1057.96	-84.54
1058.206	-119.54
1058.451	-17.54
1058.696	110.46
1058.941	55.46
1059.186	-108.54
1059.431	-75.54
1059.676	130.46
1059.922	50.46
1060.167	143.46
1060.412	309.46
1060.657	86.46
1060.902	5.46
1061.147	-177.54
1061.392	-82.54
1061.637	78.46
1061.882	-9.54
1062.127	-152.54
1062.373	-151.54
1062.618	119.46
1062.863	149.46
1063.108	-48.54
1063.353	-94.54
1063.598	-7.54
1063.843	-43.54
1064.088	-119.54
1064.333	-100.54
1064.578	52.46
1064.823	76.46
1065.068	-166.54
1065.313	-88.54
1065.558	52.46
1065.803	51.46
1066.048	-127.54
1066.293	-134.54
1066.538	79.46
1066.783	4.46
1067.028	-173.54
1067.273	-144.54
1067.518	35.46
1067.763	-9.54
1068.008	-170.54
1068.253	-108.54
1068.498	78.46
1068.743	18.46
1068.988	-144.54
1069.233	-135.54
1069.478	82.46
1069.723	143.46
1069.968	-65.54
1070.213	-19.54
1070.458	92.46
1070.703	3.46
1070.948	-185.54
1071.193	-78.54
1071.438	66.46
1071.683	82.46
1071.928	-34.54
1072.173	-49.54
1072.418	19.46
1072.663	-32.54
1072.908	-171.54
1073.152	-77.54
1073.397	99.46
1073.642	-25.54
1073.887	-76.54
1074.132	44.46
1074.377	34.46
1074.622	7.46
1074.867	-124.54
1075.112	-49.54
1075.357	128.46
1075.601	-1.54
1075.846	-56.54
1076.091	39.46
1076.336	80.46
1076.581	-52.54
1076.826	-170.54
1077.071	-77.54
1077.315	190.46
1077.56	116.46
1077.805	-111.54
1078.05	-57.54
1078.295	-13.54
1078.54	-34.54
1078.785	-164.54
1079.029	-103.54
1079.274	82.46
1079.519	-56.54
1079.764	-156.54
1080.009	-60.54
1080.253	24.46
1080.498	-66.54
1080.743	-222.54
1080.988	-72.54
1081.233	150.46
1081.478	90.46
1081.722	-117.54
1081.967	-6.54
1082.212	147.46
1082.457	38.46
1082.701	-102.54
1082.946	-76.54
1083.191	37.46
1083.436	-59.54
1083.681	-189.54
1083.925	-97.54
1084.17	-6.54
1084.415	19.46
1084.66	-191.54
1084.904	-83.54
1085.149	14.46
1085.394	-33.54
1085.639	-213.54
1085.883	-113.54
1086.128	160.46
1086.373	159.46
1086.617	-93.54
1086.862	-135.54
1087.107	-6.54
1087.352	-58.54
1087.596	-148.54
1087.841	-21.54
1088.086	36.46
1088.33	9.46
1088.575	-235.54
1088.82	-102.54
1089.064	71.46
1089.309	-61.54
1089.554	-188.54
1089.798	-150.54
1090.043	36.46
1090.288	-23.54
1090.533	-201.54
1090.777	-109.54
1091.022	44.46
1091.266	52.46
1091.511	-127.54
1091.756	-51.54
1092	107.46
1092.245	78.46
1092.49	-166.54
1092.734	-109.54
1092.979	83.46
1093.224	-21.54
1093.468	-177.54
1093.713	-117.54
1093.957	18.46
1094.202	-43.54
1094.447	-219.54
1094.691	-107.54
1094.936	43.46
1095.181	1.46
1095.425	-176.54
1095.67	-156.54
1095.914	14.46
1096.159	0.46
1096.403	-153.54
1096.648	-60.54
1096.893	39.46
1097.137	-102.54
1097.382	-221.54
1097.626	-153.54
1097.871	12.46
1098.115	-51.54
1098.36	-212.54
1098.605	-127.54
1098.849	-49.54
1099.094	-108.54
1099.338	-193.54
1099.583	-98.54
1099.827	133.46
1100.072	37.46
1100.316	-169.54
1100.561	-114.54
1100.805	45.46
1101.05	19.46
1101.294	-180.54
1101.539	-176.54
1101.783	-17.54
1102.028	-6.54
1102.273	-156.54
1102.517	-100.54
1102.761	47.46
1103.006	-67.54
1103.25	-272.54
1103.495	-159.54
1103.739	41.46
1103.984	92.46
1104.228	-105.54
1104.473	-36.54
1104.717	34.46
1104.962	7.46
1105.206	-122.54
1105.451	-163.54
1105.695	4.46
1105.94	-23.54
1106.184	-145.54
1106.429	-94.54
1106.673	16.46
1106.917	66.46
1107.162	-166.54
1107.406	-35.54
1107.651	126.46
1107.895	-88.54
1108.14	-201.54
1108.384	-98.54
1108.628	116.46
1108.873	84.46
1109.117	-148.54
1109.362	-128.54
1109.606	-16.54
1109.85	-29.54
1110.095	-171.54
1110.339	-102.54
1110.584	76.46
1110.828	24.46
1111.072	-89.54
1111.317	-128.54
1111.561	-25.54
1111.806	-38.54
1112.05	-189.54
1112.294	-96.54
1112.539	18.46
1112.783	-3.54
1113.027	-133.54
1113.272	-114.54
1113.516	-26.54
1113.76	-48.54
1114.005	-141.54
1114.249	-83.54
1114.493	64.46
1114.738	90.46
1114.982	-58.54
1115.226	-95.54
1115.471	-0.54
1115.715	-12.54
1115.959	-183.54
1116.204	-173.54
1116.448	-11.54
1116.692	-110.54
1116.937	-185.54
1117.181	-27.54
1117.425	-29.54
1117.67	-84.54
1117.914	-173.54
1118.158	-106.54
1118.402	123.46
1118.647	43.46
1118.891	-110.54
1119.135	-53.54
1119.38	100.46
1119.624	10.46
1119.868	-146.54
1120.112	-162.54
1120.357	-60.54
1120.601	-116.54
1120.845	-223.54
1121.089	-161.54
1121.334	23.46
