Data from HR4C21111__23__09-58-25-055.txt Node

Date: Mon Feb 22 09:58:25 IST 2021
User: Kapil
Spectrometer: HR4C2111
Trigger mode: 4
Integration Time (sec): 2.300000E0
Scans to average: 1
Electric dark correction enabled: true
Nonlinearity correction enabled: false
Boxcar width: 0
XAxis mode: Wavelengths
Number of Pixels in Spectrum: 3648
>>>>>Begin Spectral Data<<<<<
189.472	-457
189.745	-457
190.017	-457
190.289	-459
190.561	-283
190.834	-8
191.106	-116
191.378	25
191.65	0
191.923	-154
192.195	-99
192.467	129
192.739	97
193.011	-26
193.284	80
193.556	173
193.828	-11
194.1	-90
194.372	-105
194.644	72
194.916	83
195.188	-147
195.46	-68
195.732	53
196.004	1
196.276	-94
196.548	-48
196.82	92
197.092	67
197.364	-114
197.636	-68
197.908	38
198.18	-37
198.452	-85
198.724	-51
198.996	56
199.268	70
199.54	-28
199.811	-101
200.083	102
200.355	35
200.627	-188
200.899	-67
201.171	44
201.442	-60
201.714	-178
201.986	-87
202.258	79
202.529	127
202.801	2
203.073	64
203.345	196
203.616	21
203.888	-131
204.16	-131
204.431	87
204.703	6
204.974	-127
205.246	18
205.518	195
205.789	13
206.061	-125
206.332	-104
206.604	27
206.876	106
207.147	152
207.419	50
207.69	158
207.962	-1
208.233	-162
208.505	32
208.776	189
209.047	80
209.319	-126
209.59	-73
209.862	139
210.133	23
210.404	-150
210.676	-107
210.947	70
211.219	66
211.49	-124
211.761	-42
212.033	49
212.304	-29
212.575	-179
212.846	-89
213.118	27
213.389	-48
213.66	-98
213.931	-40
214.203	28
214.474	-32
214.745	-119
215.016	144
215.287	452
215.559	82
215.83	-109
216.101	-67
216.372	17
216.643	96
216.914	27
217.185	-72
217.456	169
217.727	43
217.998	-146
218.269	-44
218.54	41
218.811	-17
219.082	-98
219.353	-63
219.624	-16
219.895	-21
220.166	-115
220.437	-104
220.708	108
220.979	-1
221.25	-150
221.521	-93
221.792	35
222.063	80
222.334	35
222.604	175
222.875	165
223.146	104
223.417	-171
223.688	-32
223.958	135
224.229	-49
224.5	-183
224.771	-70
225.041	78
225.312	64
225.583	-114
225.854	-72
226.124	90
226.395	-9
226.666	-123
226.936	-79
227.207	56
227.478	-43
227.748	-84
228.019	60
228.289	258
228.56	-23
228.831	-30
229.101	55
229.372	75
229.642	-15
229.913	-154
230.183	-125
230.454	1
230.724	13
230.995	-92
231.265	-60
231.536	73
231.806	50
232.076	-98
232.347	-111
232.617	46
232.888	40
233.158	-58
233.428	-116
233.699	-3
233.969	-40
234.239	-143
234.51	-73
234.78	70
235.05	-2
235.321	-121
235.591	-59
235.861	71
236.131	-53
236.402	-179
236.672	-78
236.942	63
237.212	58
237.483	-45
237.753	12
238.023	170
238.293	22
238.563	-79
238.833	-97
239.103	73
239.374	-11
239.644	-134
239.914	-16
240.184	157
240.454	3
240.724	-155
240.994	-49
241.264	20
241.534	52
241.804	-5
242.074	-85
242.344	-33
242.614	-59
242.884	-179
243.154	-115
243.424	56
243.694	73
243.964	-80
244.234	-75
244.503	118
244.773	11
245.043	-206
245.313	-120
245.583	130
245.853	95
246.123	-155
246.392	-93
246.662	6
246.932	-25
247.202	-172
247.471	-44
247.741	265
248.011	117
248.281	-131
248.55	-87
248.82	82
249.09	2
249.359	-92
249.629	-75
249.899	51
250.168	68
250.438	-25
250.708	-93
250.977	100
251.247	71
251.516	-104
251.786	-33
252.055	132
252.325	22
252.595	-88
252.864	-43
253.134	55
253.403	-31
253.673	-158
253.942	-99
254.212	48
254.481	9
254.75	-129
255.02	-75
255.289	83
255.559	-2
255.828	-114
256.097	-25
256.367	39
256.636	-64
256.906	-133
257.175	-15
257.444	244
257.714	57
257.983	-74
258.252	-33
258.521	14
258.791	49
259.06	-93
259.329	-45
259.598	70
259.868	-5
260.137	-98
260.406	49
260.675	93
260.944	21
261.214	-129
261.483	-38
261.752	185
262.021	23
262.29	-163
262.559	-123
262.828	21
263.097	-42
263.366	-213
263.635	-89
263.905	136
264.174	21
264.443	-196
264.712	-104
264.981	53
265.25	-38
265.519	-145
265.788	-137
266.057	53
266.325	91
266.594	-38
266.863	-110
267.132	36
267.401	6
267.67	-197
267.939	-145
268.208	40
268.477	81
268.745	-111
269.014	-92
269.283	131
269.552	46
269.821	-101
270.089	-2
270.358	4
270.627	-13
270.896	-118
271.164	-146
271.433	41
271.702	109
271.971	-136
272.239	-133
272.508	28
272.777	-59
273.045	-59
273.314	-17
273.583	101
273.851	-10
274.12	-159
274.388	-119
274.657	3
274.926	-3
275.194	-152
275.463	-64
275.731	38
276	178
276.268	387
276.537	-71
276.805	40
277.074	59
277.342	-153
277.611	-96
277.879	121
278.148	50
278.416	-123
278.684	-96
278.953	-7
279.221	-21
279.49	-181
279.758	-93
280.026	-2
280.295	5
280.563	-95
280.831	1051
281.1	2495
281.368	245
281.636	-80
281.904	-114
282.173	14
282.441	-52
282.709	-96
282.977	35
283.246	68
283.514	-24
283.782	-48
284.05	49
284.318	84
284.587	-4
284.855	-116
285.123	-36
285.391	70
285.659	47
285.927	-141
286.195	-44
286.463	67
286.732	-16
287	-121
287.268	-40
287.536	41
287.804	-29
288.072	-138
288.34	-83
288.608	81
288.876	-26
289.144	-120
289.412	-14
289.68	66
289.948	3
290.215	-87
290.483	-85
290.751	108
291.019	86
291.287	-152
291.555	-103
291.823	51
292.091	5
292.358	-56
292.626	8
292.894	102
293.162	73
293.43	-86
293.697	-71
293.965	65
294.233	-24
294.501	-158
294.768	-63
295.036	86
295.304	43
295.572	-126
295.839	-83
296.107	141
296.375	23
296.642	-125
296.91	-99
297.178	59
297.445	172
297.713	106
297.98	-67
298.248	-29
298.516	-30
298.783	-115
299.051	-101
299.318	32
299.586	-8
299.853	-81
300.121	-75
300.388	65
300.656	-9
300.923	-161
301.191	-52
301.458	69
301.726	8
301.993	-137
302.26	-79
302.528	54
302.795	-4
303.063	-66
303.33	-44
303.597	51
303.865	33
304.132	-123
304.399	-126
304.667	-14
304.934	26
305.201	-105
305.469	-20
305.736	68
306.003	41
306.27	-48
306.538	-80
306.805	9
307.072	-18
307.339	-65
307.606	-24
307.874	175
308.141	84
308.408	-111
308.675	-105
308.942	-33
309.209	-64
309.477	-118
309.744	-96
310.011	33
310.278	64
310.545	12
310.812	-25
311.079	145
311.346	202
311.613	64
311.88	-32
312.147	-61
312.414	-32
312.681	-96
312.948	-23
313.215	137
313.482	84
313.749	-97
314.016	-186
314.283	-55
314.55	50
314.817	-90
315.083	-113
315.35	-58
315.617	-120
315.884	-135
316.151	69
316.418	185
316.684	-20
316.951	-184
317.218	-106
317.485	10
317.752	-49
318.018	-111
318.285	12
318.552	47
318.819	-45
319.085	-118
319.352	-36
319.619	47
319.885	-9
320.152	-181
320.419	-96
320.685	41
320.952	-9
321.219	-42
321.485	81
321.752	9
322.019	-21
322.285	68
322.552	0
322.818	143
323.085	-2
323.351	-133
323.618	-11
323.884	54
324.151	-53
324.417	-28
324.684	-58
324.95	-33
325.217	-124
325.483	-161
325.75	-16
326.016	23
326.283	-4
326.549	-168
326.815	-81
327.082	100
327.348	20
327.615	-88
327.881	-1
328.147	132
328.414	147
328.68	32
328.946	-23
329.212	41
329.479	10
329.745	-114
330.011	-100
330.278	26
330.544	-30
330.81	-21
331.076	-23
331.342	-27
331.609	-27
331.875	-83
332.141	-79
332.407	48
332.673	15
332.94	-5
333.206	-24
333.472	70
333.738	100
334.004	-97
334.27	-15
334.536	19
334.802	-18
335.068	-77
335.334	16
335.6	44
335.866	-1
336.132	-148
336.398	-71
336.664	-3
336.93	-34
337.196	-90
337.462	-3
337.728	47
337.994	-27
338.26	-81
338.526	-26
338.792	-24
339.058	-29
339.324	-114
339.59	15
339.856	81
340.121	-36
340.387	-105
340.653	106
340.919	168
341.185	73
341.45	-55
341.716	39
341.982	122
342.248	-41
342.514	-67
342.779	20
343.045	57
343.311	12
343.576	-76
343.842	-9
344.108	159
344.374	34
344.639	-98
344.905	-59
345.171	85
345.436	-39
345.702	-80
345.967	73
346.233	104
346.499	55
346.764	-145
347.03	-46
347.295	-10
347.561	32
347.826	-13
348.092	-88
348.357	6
348.623	5
348.888	-91
349.154	-53
349.419	86
349.685	47
349.95	-43
350.216	-19
350.481	81
350.747	-6
351.012	-115
351.277	-34
351.543	83
351.808	22
352.074	-128
352.339	-71
352.604	101
352.87	59
353.135	-65
353.4	-3
353.666	57
353.931	48
354.196	-79
354.461	-61
354.727	100
354.992	82
355.257	-69
355.522	43
355.788	67
356.053	132
356.318	-4
356.583	-11
356.848	190
357.113	301
357.379	23
357.644	6
357.909	196
358.174	214
358.439	-27
358.704	47
358.969	167
359.234	184
359.499	6
359.765	82
360.03	196
360.295	196
360.56	34
360.825	114
361.09	320
361.355	139
361.62	106
361.885	153
362.15	121
362.415	151
362.679	88
362.944	241
363.209	255
363.474	271
363.739	225
364.004	151
364.269	213
364.534	256
364.799	228
365.063	243
365.328	337
365.593	340
365.858	213
366.123	217
366.387	340
366.652	282
366.917	209
367.182	268
367.447	405
367.711	369
367.976	314
368.241	384
368.505	448
368.77	352
369.035	354
369.299	414
369.564	443
369.829	366
370.093	332
370.358	337
370.623	465
370.887	484
371.152	356
371.416	451
371.681	475
371.946	401
372.21	378
372.475	537
372.739	577
373.004	517
373.268	503
373.533	564
373.797	630
374.062	627
374.326	474
374.591	583
374.855	681
375.12	626
375.384	476
375.648	566
375.913	718
376.177	731
376.442	632
376.706	663
376.97	796
377.235	750
377.499	760
377.763	786
378.028	789
378.292	858
378.556	791
378.821	736
379.085	817
379.349	763
379.614	718
379.878	858
380.142	1044
380.406	972
380.671	989
380.935	1129
381.199	1238
381.463	1131
381.727	1092
381.991	1060
382.256	1168
382.52	1117
382.784	1148
383.048	1305
383.312	1221
383.576	1233
383.84	1164
384.104	1228
384.369	1319
384.633	1241
384.897	1161
385.161	1331
385.425	1469
385.689	1390
385.953	1345
386.217	1340
386.481	1453
386.745	1531
387.009	1497
387.273	1481
387.537	1515
387.801	1577
388.064	1537
388.328	1662
388.592	1736
388.856	1704
389.12	1661
389.384	1758
389.648	1799
389.912	1834
390.176	1883
390.439	2007
390.703	1823
390.967	1845
391.231	1803
391.495	1872
391.758	1947
392.022	1992
392.286	1881
392.55	1923
392.813	2059
393.077	2110
393.341	2050
393.605	2175
393.868	2130
394.132	2144
394.396	2119
394.659	2291
394.923	2243
395.187	2207
395.45	2233
395.714	2289
395.978	2331
396.241	2342
396.505	2288
396.768	2399
397.032	2470
397.295	2499
397.559	2422
397.823	2376
398.086	2584
398.35	2543
398.613	2451
398.877	2558
399.14	2728
399.404	2795
399.667	2710
399.931	2695
400.194	2800
400.457	2760
400.721	2765
400.984	2853
401.248	2839
401.511	2837
401.775	2717
402.038	2823
402.301	3040
402.565	3010
402.828	2864
403.091	2939
403.355	3104
403.618	3077
403.881	3069
404.145	3106
404.408	3198
404.671	3140
404.934	3230
405.198	3309
405.461	3344
405.724	3355
405.987	3344
406.251	3405
406.514	3540
406.777	3399
407.04	3313
407.303	3307
407.567	3441
407.83	3549
408.093	3398
408.356	3512
408.619	3633
408.882	3673
409.145	3599
409.408	3587
409.672	3702
409.935	3638
410.198	3543
410.461	3615
410.724	3852
410.987	3789
411.25	3614
411.513	3752
411.776	3835
412.039	3707
412.302	3665
412.565	3755
412.828	3812
413.091	3839
413.354	3750
413.617	3722
413.879	3782
414.142	3771
414.405	3561
414.668	3646
414.931	3784
415.194	3766
415.457	3669
415.72	3743
415.983	3718
416.245	3763
416.508	3665
416.771	3596
417.034	3723
417.297	3733
417.559	3677
417.822	3657
418.085	3750
418.348	3737
418.61	3641
418.873	3649
419.136	3679
419.399	3667
419.661	3719
419.924	3677
420.187	3757
420.449	3741
420.712	3770
420.975	3760
421.237	3816
421.5	3850
421.762	3920
422.025	3939
422.288	4019
422.55	3815
422.813	3712
423.075	3874
423.338	3962
423.601	4008
423.863	3974
424.126	4075
424.388	4158
424.651	4111
424.913	4072
425.176	4104
425.438	4096
425.701	4103
425.963	4007
426.225	4000
426.488	4097
426.75	4134
427.013	4105
427.275	4133
427.538	4148
427.8	4197
428.062	4110
428.325	4128
428.587	4231
428.849	4254
429.112	4295
429.374	4248
429.636	4246
429.899	4362
430.161	4294
430.423	4342
430.686	4471
430.948	4419
431.21	4251
431.472	4211
431.735	4346
431.997	4422
432.259	4407
432.521	4272
432.783	4424
433.046	4422
433.308	4300
433.57	4349
433.832	4620
434.094	4410
434.356	4303
434.618	4436
434.881	4490
435.143	4573
435.405	4523
435.667	4489
435.929	4533
436.191	4530
436.453	4473
436.715	4572
436.977	4664
437.239	4751
437.501	4616
437.763	4612
438.025	4727
438.287	4678
438.549	4643
438.811	4585
439.073	4585
439.335	4626
439.597	4554
439.859	4507
440.121	4643
440.383	4624
440.645	4647
440.907	4725
441.168	4721
441.43	4709
441.692	4728
441.954	4809
442.216	4826
442.478	4745
442.74	4605
443.001	4772
443.263	4919
443.525	4755
443.787	4633
444.048	4632
444.31	4695
444.572	4773
444.834	4714
445.095	4721
445.357	4925
445.619	4698
445.881	4576
446.142	4702
446.404	4682
446.666	4724
446.927	4716
447.189	4835
447.451	4915
447.712	4687
447.974	4559
448.235	4583
448.497	4647
448.759	4610
449.02	4659
449.282	4616
449.543	4757
449.805	4798
450.066	4533
450.328	4679
450.59	4913
450.851	4733
451.113	4562
451.374	4496
451.636	4822
451.897	4847
452.158	4762
452.42	4743
452.681	4788
452.943	4630
453.204	4652
453.466	4668
453.727	4629
453.988	4686
454.25	4635
454.511	4665
454.773	4718
455.034	4870
455.295	4643
455.557	4787
455.818	4801
456.079	4752
456.341	4879
456.602	4967
456.863	4959
457.124	4779
457.386	4624
457.647	4634
457.908	4731
458.169	4878
458.431	4760
458.692	4829
458.953	4851
459.214	4875
459.476	5015
459.737	5140
459.998	5126
460.259	4960
460.52	4901
460.781	5074
461.043	5209
461.304	5113
461.565	4945
461.826	5019
462.087	5204
462.348	5313
462.609	5285
462.87	5252
463.131	5160
463.392	5398
463.653	5429
463.914	5434
464.175	5424
464.436	5453
464.697	5481
464.958	5341
465.219	5398
465.48	5517
465.741	5532
466.002	5405
466.263	5656
466.524	5671
466.785	5536
467.046	5618
467.307	5796
467.568	5887
467.829	5844
468.089	5801
468.35	5890
468.611	5790
468.872	5739
469.133	5931
469.394	6156
469.655	6308
469.915	6165
470.176	6002
470.437	6096
470.698	6274
470.958	6340
471.219	6340
471.48	6433
471.741	6583
472.001	6570
472.262	6539
472.523	6767
472.784	6882
473.044	6812
473.305	6838
473.566	6831
473.826	6965
474.087	6913
474.348	6993
474.608	7149
474.869	7143
475.129	7045
475.39	7134
475.651	7341
475.911	7538
476.172	7422
476.432	7481
476.693	7714
476.953	7606
477.214	7647
477.475	7719
477.735	7717
477.996	7912
478.256	7785
478.517	7897
478.777	8041
479.038	8167
479.298	8212
479.558	8260
479.819	8382
480.079	8404
480.34	8489
480.6	8486
480.861	8612
481.121	8610
481.381	8617
481.642	8712
481.902	8737
482.162	8750
482.423	8787
482.683	8921
482.943	9030
483.204	9061
483.464	9068
483.724	9023
483.985	9080
484.245	9219
484.505	9229
484.765	9319
485.026	9395
485.286	9508
485.546	9521
485.806	9550
486.067	9589
486.327	9518
486.587	9544
486.847	9595
487.107	9697
487.368	9742
487.628	9747
487.888	9825
488.148	9913
488.408	9763
488.668	9870
488.928	9917
489.188	9984
489.449	10061
489.709	9967
489.969	10057
490.229	10126
490.489	10151
490.749	10061
491.009	9922
491.269	10062
491.529	10124
491.789	10155
492.049	10263
492.309	10326
492.569	10187
492.829	10223
493.089	10171
493.349	10356
493.609	10285
493.869	10218
494.129	10320
494.389	10357
494.648	10261
494.908	10238
495.168	10357
495.428	10461
495.688	10406
495.948	10228
496.208	10254
496.467	10344
496.727	10408
496.987	10432
497.247	10465
497.507	10511
497.767	10556
498.026	10332
498.286	10435
498.546	10596
498.806	10509
499.065	10527
499.325	10450
499.585	10466
499.845	10504
500.104	10489
500.364	10524
500.624	10540
500.883	10428
501.143	10504
501.403	10606
501.662	10707
501.922	10646
502.182	10440
502.441	10463
502.701	10530
502.96	10674
503.22	10572
503.48	10513
503.739	10535
503.999	10448
504.258	10422
504.518	10512
504.777	10627
505.037	10583
505.296	10507
505.556	10472
505.815	10591
506.075	10665
506.334	10665
506.594	10467
506.853	10460
507.113	10506
507.372	10395
507.632	10501
507.891	10593
508.151	10604
508.41	10449
508.669	10498
508.929	10578
509.188	10521
509.447	10488
509.707	10431
509.966	10501
510.226	10563
510.485	10535
510.744	10580
511.004	10621
511.263	10483
511.522	10416
511.781	10480
512.041	10608
512.3	10582
512.559	10593
512.818	10585
513.078	10592
513.337	10570
513.596	10479
513.855	10548
514.115	10694
514.374	10656
514.633	10464
514.892	10500
515.151	10691
515.41	10781
515.67	10635
515.929	10576
516.188	10741
516.447	10643
516.706	10515
516.965	10637
517.224	10732
517.483	10725
517.743	10655
518.002	10668
518.261	10695
518.52	10705
518.779	10631
519.038	10623
519.297	10675
519.556	10704
519.815	10646
520.074	10600
520.333	10747
520.592	10721
520.851	10603
521.11	10771
521.369	10885
521.628	10677
521.887	10574
522.145	10649
522.404	10707
522.663	10696
522.922	10651
523.181	10680
523.44	10742
523.699	10729
523.958	10578
524.217	10600
524.475	10647
524.734	10705
524.993	10680
525.252	10631
525.511	10636
525.769	10632
526.028	10564
526.287	10567
526.546	10689
526.805	10683
527.063	10570
527.322	10553
527.581	10643
527.839	10642
528.098	10596
528.357	10580
528.616	10654
528.874	10651
529.133	10630
529.392	10656
529.65	10625
529.909	10591
530.168	10513
530.426	10506
530.685	10603
530.943	10567
531.202	10496
531.461	10512
531.719	10684
531.978	10618
532.236	10518
532.495	10607
532.753	10678
533.012	10592
533.271	10561
533.529	10532
533.788	10590
534.046	10563
534.305	10493
534.563	10652
534.822	10761
535.08	10700
535.338	10604
535.597	10655
535.855	10710
536.114	10597
536.372	10542
536.631	10629
536.889	10736
537.147	10709
537.406	10547
537.664	10653
537.923	10739
538.181	10800
538.439	10635
538.698	10755
538.956	10787
539.214	10649
539.473	10619
539.731	10720
539.989	10885
540.248	10817
540.506	10785
540.764	10801
541.022	10858
541.281	10961
541.539	10902
541.797	10847
542.055	10985
542.314	11045
542.572	10972
542.83	10918
543.088	11051
543.346	11046
543.604	10980
543.863	11068
544.121	11185
544.379	11147
544.637	11096
544.895	11212
545.153	11294
545.411	11106
545.67	11030
545.928	11213
546.186	11407
546.444	11419
546.702	11342
546.96	11439
547.218	11508
547.476	11485
547.734	11372
547.992	11430
548.25	11684
548.508	11578
548.766	11599
549.024	11652
549.282	11671
549.54	11756
549.798	11729
550.056	11812
550.314	11962
550.572	11888
550.83	11792
551.088	11954
551.346	12063
551.603	12019
551.861	12034
552.119	12144
552.377	12210
552.635	12119
552.893	12089
553.151	12186
553.409	12334
553.666	12334
553.924	12292
554.182	12298
554.44	12465
554.698	12547
554.955	12469
555.213	12436
555.471	12546
555.729	12576
555.986	12461
556.244	12599
556.502	12800
556.76	12674
557.017	12723
557.275	12769
557.533	12894
557.79	12817
558.048	12635
558.306	12710
558.563	12829
558.821	12820
559.079	12832
559.336	12859
559.594	12884
559.852	12817
560.109	12768
560.367	12922
560.624	13037
560.882	12995
561.14	12979
561.397	13069
561.655	13011
561.912	13066
562.17	12942
562.427	13013
562.685	13077
562.942	13035
563.2	12994
563.457	13121
563.715	13093
563.972	13162
564.23	13021
564.487	12971
564.745	13075
565.002	13158
565.26	13103
565.517	13062
565.774	13067
566.032	13088
566.289	13020
566.547	13092
566.804	13183
567.061	13142
567.319	13063
567.576	13112
567.833	13177
568.091	13225
568.348	13102
568.605	13085
568.863	13055
569.12	13054
569.377	13001
569.635	12934
569.892	12988
570.149	12957
570.406	12806
570.664	12840
570.921	12962
571.178	12822
571.435	12717
571.693	12760
571.95	12852
572.207	12770
572.464	12656
572.721	12768
572.979	12784
573.236	12637
573.493	12545
573.75	12593
574.007	12667
574.264	12541
574.521	12449
574.779	12429
575.036	12480
575.293	12441
575.55	12368
575.807	12297
576.064	12276
576.321	12246
576.578	12082
576.835	12072
577.092	12233
577.349	12098
577.606	11855
577.863	11860
578.12	11948
578.377	11894
578.634	11654
578.891	11652
579.148	11724
579.405	11611
579.662	11459
579.919	11555
580.176	11519
580.433	11488
580.69	11330
580.947	11335
581.204	11362
581.461	11199
581.717	11028
581.974	11084
582.231	11097
582.488	10973
582.745	10728
583.002	10697
583.259	10903
583.515	10840
583.772	10566
584.029	10584
584.286	10687
584.543	10450
584.799	10408
585.056	10407
585.313	10432
585.57	10413
585.826	10260
586.083	10273
586.34	10334
586.597	10120
586.853	9937
587.11	9921
587.367	10100
587.623	10092
587.88	9934
588.137	9734
588.393	9765
588.65	9674
588.907	9563
589.163	9642
589.42	9677
589.677	9598
589.933	9416
590.19	9470
590.446	9536
590.703	9490
590.96	9233
591.216	9226
591.473	9325
591.729	9298
591.986	9221
592.242	9295
592.499	9461
592.755	9177
593.012	9052
593.268	9104
593.525	9049
593.781	9064
594.038	8948
594.294	8949
594.551	8937
594.807	8865
595.064	8871
595.32	8840
595.576	8911
595.833	8921
596.089	8776
596.346	8913
596.602	8971
596.858	8893
597.115	8746
597.371	8812
597.628	8795
597.884	8718
598.14	8699
598.397	8846
598.653	8885
598.909	8751
599.166	8590
599.422	8617
599.678	8688
599.934	8655
600.191	8541
600.447	8583
600.703	8678
600.959	8643
601.216	8452
601.472	8493
601.728	8568
601.984	8525
602.241	8423
602.497	8557
602.753	8618
603.009	8529
603.265	8430
603.521	8606
603.778	8673
604.034	8519
604.29	8428
604.546	8512
604.802	8636
605.058	8530
605.314	8391
605.571	8441
605.827	8421
606.083	8404
606.339	8304
606.595	8453
606.851	8524
607.107	8529
607.363	8366
607.619	8401
607.875	8601
608.131	8512
608.387	8288
608.643	8349
608.899	8420
609.155	8415
609.411	8320
609.667	8372
609.923	8398
610.179	8341
610.435	8179
610.691	8189
610.947	8310
611.203	8271
611.459	8224
611.714	8247
611.97	8386
612.226	8280
612.482	8052
612.738	8155
612.994	8402
613.25	8245
613.505	8051
613.761	8063
614.017	8140
614.273	8148
614.529	8063
614.785	7986
615.04	8065
615.296	8009
615.552	7962
615.808	7972
616.063	8067
616.319	8005
616.575	7887
616.831	7978
617.086	8139
617.342	8080
617.598	7900
617.854	7943
618.109	8024
618.365	7838
618.621	7763
618.876	7856
619.132	7973
619.388	7830
619.643	7625
619.899	7748
620.155	7828
620.41	7776
620.666	7628
620.921	7648
621.177	7778
621.433	7761
621.688	7646
621.944	7507
622.199	7631
622.455	7672
622.71	7486
622.966	7508
623.221	7493
623.477	7497
623.732	7525
623.988	7364
624.243	7452
624.499	7447
624.754	7294
625.01	7327
625.265	7394
625.521	7483
625.776	7320
626.032	7284
626.287	7317
626.543	7245
626.798	7194
627.053	7237
627.309	7261
627.564	7200
627.82	7153
628.075	7245
628.33	7189
628.586	7044
628.841	6912
629.096	7078
629.352	7159
629.607	6990
629.862	6891
630.118	7001
630.373	6928
630.628	6927
630.884	6816
631.139	6869
631.394	6994
631.649	6936
631.905	6760
632.16	6878
632.415	7001
632.67	6822
632.926	6662
633.181	6625
633.436	6802
633.691	6705
633.946	6550
634.202	6587
634.457	6642
634.712	6565
634.967	6484
635.222	6486
635.477	6542
635.733	6486
635.988	6392
636.243	6446
636.498	6548
636.753	6465
637.008	6288
637.263	6338
637.518	6430
637.773	6408
638.028	6316
638.283	6303
638.539	6345
638.794	6317
639.049	6166
639.304	6157
639.559	6207
639.814	6075
640.069	6012
640.324	6058
640.579	6154
640.834	6123
641.089	5995
641.344	6016
641.598	6233
641.853	6103
642.108	5935
642.363	5843
642.618	6033
642.873	5919
643.128	5781
643.383	5795
643.638	5870
643.893	5918
644.148	5839
644.402	5738
644.657	5847
644.912	5744
645.167	5685
645.422	5761
645.677	5726
645.931	5724
646.186	5699
646.441	5606
646.696	5617
646.951	5637
647.205	5579
647.46	5541
647.715	5589
647.97	5745
648.224	5846
648.479	5634
648.734	5744
648.989	5684
649.243	5525
649.498	5474
649.753	5520
650.007	5604
650.262	5476
650.517	5452
650.771	5501
651.026	5428
651.281	5285
651.535	5391
651.79	5414
652.045	5425
652.299	5329
652.554	5393
652.809	5445
653.063	5555
653.318	5437
653.572	5275
653.827	5416
654.081	5298
654.336	5200
654.591	5196
654.845	5292
655.1	5235
655.354	5166
655.609	5227
655.863	5373
656.118	5349
656.372	5205
656.627	5238
656.881	5287
657.136	5206
657.39	5067
657.645	5214
657.899	5358
658.153	5216
658.408	5096
658.662	5168
658.917	5199
659.171	5074
659.426	4949
659.68	5074
659.934	5197
660.189	5161
660.443	5037
660.697	5193
660.952	5268
661.206	5097
661.46	4952
661.715	5063
661.969	5168
662.223	5147
662.478	5082
662.732	5094
662.986	5153
663.241	5167
663.495	5060
663.749	5121
664.003	5258
664.258	5158
664.512	5059
664.766	5080
665.02	5120
665.275	5164
665.529	5000
665.783	5020
666.037	5171
666.291	5188
666.546	5068
666.8	5080
667.054	5077
667.308	5132
667.562	4985
667.816	5077
668.071	5182
668.325	5107
668.579	5092
668.833	5136
669.087	5286
669.341	5156
669.595	5025
669.849	5122
670.103	5172
670.357	5168
670.612	5153
670.866	5088
671.12	5193
671.374	5197
671.628	5150
671.882	5161
672.136	5257
672.39	5252
672.644	5111
672.898	5244
673.152	5382
673.406	5298
673.66	5201
673.914	5255
674.168	5374
674.422	5316
674.675	5203
674.929	5284
675.183	5387
675.437	5346
675.691	5255
675.945	5374
676.199	5465
676.453	5336
676.707	5197
676.961	5277
677.214	5433
677.468	5433
677.722	5425
677.976	5398
678.23	5435
678.484	5433
678.737	5324
678.991	5382
679.245	5468
679.499	5432
679.753	5357
680.006	5423
680.26	5552
680.514	5581
680.768	5388
681.021	5439
681.275	5475
681.529	5510
681.783	5468
682.036	5523
682.29	5551
682.544	5590
682.797	5542
683.051	5506
683.305	5573
683.559	5570
683.812	5577
684.066	5622
684.32	5659
684.573	5631
684.827	5705
685.08	5667
685.334	5789
685.588	5725
685.841	5604
686.095	5720
686.348	5714
686.602	5708
686.856	5637
687.109	5611
687.363	5724
687.616	5663
687.87	5579
688.123	5670
688.377	5764
688.63	5784
688.884	5760
689.137	5792
689.391	5834
689.644	5687
689.898	5535
690.151	5632
690.405	5812
690.658	5779
690.912	5687
691.165	5670
691.419	5791
691.672	5809
691.926	5747
692.179	5782
692.432	5870
692.686	5833
692.939	5660
693.193	5727
693.446	5881
693.699	5907
693.953	5870
694.206	5805
694.459	5939
694.713	5974
694.966	5756
695.219	5789
695.473	5929
695.726	5809
695.979	5711
696.233	5832
696.486	5913
696.739	5888
696.992	5744
697.246	5875
697.499	5965
697.752	5762
698.006	5744
698.259	5887
698.512	5911
698.765	5864
699.018	5828
699.272	5846
699.525	5867
699.778	5792
700.031	5739
700.284	5747
700.538	5870
700.791	5822
701.044	5800
701.297	5844
701.55	5846
701.803	5800
702.056	5681
702.31	5757
702.563	5848
702.816	5773
703.069	5607
703.322	5721
703.575	5835
703.828	5843
704.081	5736
704.334	5758
704.587	5832
704.84	5751
705.093	5764
705.346	5879
705.599	5857
705.853	5782
706.106	5824
706.359	6079
706.612	5800
706.865	5843
707.118	5661
707.37	5721
707.623	5860
707.876	5805
708.129	5726
708.382	5821
708.635	5924
708.888	5744
709.141	5562
709.394	5732
709.647	5839
709.9	5718
710.153	5595
710.406	5723
710.658	5770
710.911	5697
711.164	5526
711.417	5569
711.67	5653
711.923	5693
712.176	5506
712.428	5581
712.681	5663
712.934	5629
713.187	5571
713.44	5538
713.692	5634
713.945	5540
714.198	5446
714.451	5388
714.704	5496
714.956	5547
715.209	5607
715.462	5582
715.715	5555
715.967	5515
716.22	5366
716.473	5417
716.725	5591
716.978	5489
717.231	5425
717.484	5427
717.736	5386
717.989	5339
718.242	5261
718.494	5352
718.747	5479
718.999	5408
719.252	5364
719.505	5385
719.757	5389
720.01	5282
720.263	5215
720.515	5220
720.768	5311
721.02	5292
721.273	5189
721.525	5134
721.778	5244
722.031	5356
722.283	5151
722.536	5154
722.788	5253
723.041	5170
723.293	5069
723.546	5034
723.798	5137
724.051	5160
724.303	5152
724.556	5158
724.808	5234
725.061	5152
725.313	5031
725.566	5048
725.818	5073
726.071	5045
726.323	4897
726.575	4948
726.828	5101
727.08	5107
727.333	4954
727.585	4932
727.837	4986
728.09	4969
728.342	4831
728.595	4906
728.847	5081
729.099	4866
729.352	4868
729.604	4846
729.856	4887
730.109	4891
730.361	4765
730.613	4837
730.866	4982
731.118	4860
731.37	4746
731.622	4738
731.875	4804
732.127	4853
732.379	4798
732.631	4859
732.884	4805
733.136	4743
733.388	4612
733.64	4634
733.893	4801
734.145	4702
734.397	4565
734.649	4591
734.901	4668
735.154	4544
735.406	4458
735.658	4523
735.91	4614
736.162	4545
736.414	4441
736.667	4548
736.919	4574
737.171	4447
737.423	4399
737.675	4444
737.927	4561
738.179	4495
738.431	4396
738.684	4375
738.936	4462
739.188	4484
739.44	4270
739.692	4325
739.944	4374
740.196	4335
740.448	4295
740.7	4308
740.952	4329
741.204	4343
741.456	4244
741.708	4266
741.96	4298
742.212	4299
742.464	4285
742.716	4177
742.968	4248
743.22	4204
743.472	4156
743.724	4182
743.976	4342
744.228	4337
744.48	4092
744.732	4112
744.983	4250
745.235	4251
745.487	4210
745.739	4233
745.991	4196
746.243	4255
746.495	4116
746.747	4102
746.999	4221
747.25	4157
747.502	4088
747.754	4192
748.006	4109
748.258	4244
748.51	4274
748.761	4119
749.013	4172
749.265	4194
749.517	4175
749.768	4216
750.02	4226
750.272	4179
750.524	3984
750.776	3964
751.027	4142
751.279	4175
751.531	3966
751.782	4033
752.034	4136
752.286	4000
752.538	3849
752.789	3948
753.041	4056
753.293	4003
753.544	3917
753.796	3952
754.048	4012
754.299	4017
754.551	3966
754.803	3881
755.054	3936
755.306	3987
755.558	3836
755.809	3874
756.061	4031
756.312	3909
756.564	3863
756.816	3876
757.067	3859
757.319	3804
757.57	3801
757.822	3903
758.073	3950
758.325	3895
758.577	3718
758.828	3747
759.08	3997
759.331	3948
759.583	3738
759.834	3835
760.086	3756
760.337	3716
760.589	3656
760.84	3695
761.092	3786
761.343	3692
761.595	3566
761.846	3709
762.097	3778
762.349	3720
762.6	3556
762.852	3698
763.103	3799
763.355	3651
763.606	3577
763.857	3672
764.109	3745
764.36	3667
764.612	3577
764.863	3640
765.114	3660
765.366	3525
765.617	3437
765.868	3475
766.12	3653
766.371	3680
766.622	3473
766.874	3532
767.125	3668
767.376	3513
767.628	3421
767.879	3521
768.13	3590
768.381	3544
768.633	3493
768.884	3489
769.135	3592
769.386	3541
769.638	3476
769.889	3483
770.14	3521
770.391	3433
770.643	3377
770.894	3364
771.145	3470
771.396	3360
771.647	3266
771.899	3408
772.15	3506
772.401	3444
772.652	3269
772.903	3303
773.154	3644
773.406	3849
773.657	3286
773.908	3294
774.159	3408
774.41	3385
774.661	3236
774.912	3277
775.163	3456
775.414	3443
775.666	3203
775.917	3218
776.168	3229
776.419	3234
776.67	3171
776.921	3169
777.172	3231
777.423	3221
777.674	3233
777.925	3235
778.176	3180
778.427	3201
778.678	3086
778.929	3116
779.18	3219
779.431	3093
779.682	3095
779.933	3153
780.184	3175
780.435	3108
780.686	3068
780.937	3109
781.188	3132
781.439	3264
781.69	3199
781.941	3128
782.191	3139
782.442	3110
782.693	2999
782.944	2989
783.195	3079
783.446	3093
783.697	3099
783.948	2985
784.199	2996
784.449	2967
784.7	2965
784.951	2995
785.202	3134
785.453	3042
785.704	2873
785.954	2883
786.205	2978
786.456	2896
786.707	2822
786.958	2891
787.208	2976
787.459	2932
787.71	2897
787.961	2862
788.211	2934
788.462	2943
788.713	2856
788.964	2844
789.214	2951
789.465	2962
789.716	2876
789.967	2880
790.217	2860
790.468	2840
790.719	2764
790.969	2805
791.22	2841
791.471	2910
791.721	2901
791.972	2775
792.223	2847
792.473	2776
792.724	2751
792.975	2753
793.225	2825
793.476	2792
793.726	2723
793.977	2812
794.228	2922
794.478	2773
794.729	2661
794.979	2770
795.23	2820
795.481	2768
795.731	2657
795.982	2703
796.232	2701
796.483	2630
796.733	2578
796.984	2674
797.234	2727
797.485	2732
797.735	2597
797.986	2612
798.236	2716
798.487	2661
798.737	2661
798.988	2736
799.238	2768
799.489	2633
799.739	2545
799.99	2625
800.24	2710
800.491	2785
800.741	2619
800.991	2493
801.242	2605
801.492	2663
801.743	2560
801.993	2777
802.244	2981
802.494	2626
802.744	2552
802.995	2559
803.245	2563
803.495	2528
803.746	2468
803.996	2537
804.246	2525
804.497	2549
804.747	2426
804.997	2514
805.248	2491
805.498	2462
805.748	2485
805.999	2375
806.249	2459
806.499	2471
806.75	2361
807	2390
807.25	2498
807.5	2427
807.751	2418
808.001	2467
808.251	2477
808.501	2556
808.752	2521
809.002	2464
809.252	2453
809.502	2382
809.752	2359
810.003	2352
810.253	2419
810.503	2440
810.753	2449
811.003	2472
811.254	2499
811.504	2390
811.754	2352
812.004	2363
812.254	2589
812.504	2444
812.754	2311
813.005	2343
813.255	2448
813.505	2391
813.755	2259
814.005	2320
814.255	2359
814.505	2323
814.755	2244
815.005	2263
815.255	2389
815.505	2341
815.756	2338
816.006	2315
816.256	2258
816.506	2208
816.756	2154
817.006	2182
817.256	2312
817.506	2347
817.756	2274
818.006	2233
818.256	2304
818.506	2280
818.756	2156
819.006	2206
819.256	2257
819.506	2211
819.756	2146
820.006	2250
820.255	2310
820.505	2260
820.755	2107
821.005	2130
821.255	2281
821.505	2236
821.755	2164
822.005	2249
822.255	2284
822.505	2191
822.755	2211
823.004	2072
823.254	2087
823.504	2182
823.754	2179
824.004	2115
824.254	2187
824.504	2215
824.753	2265
825.003	2241
825.253	2261
825.503	2155
825.753	2123
826.002	2192
826.252	2366
826.502	2184
826.752	2072
827.002	2067
827.251	2175
827.501	2116
827.751	1996
828.001	2047
828.25	2146
828.5	1980
828.75	1960
829	2078
829.249	2236
829.499	2080
829.749	2028
829.998	2114
830.248	2145
830.498	1999
830.748	2006
830.997	2086
831.247	2148
831.497	2120
831.746	2017
831.996	2132
832.246	2223
832.495	2242
832.745	1970
832.994	1951
833.244	2129
833.494	2008
833.743	1920
833.993	2004
834.243	2083
834.492	2029
834.742	2035
834.991	1999
835.241	2150
835.49	2003
835.74	1882
835.99	1956
836.239	2077
836.489	2039
836.738	1950
836.988	1843
837.237	1991
837.487	2102
837.736	1964
837.986	1908
838.235	1975
838.485	1944
838.734	1897
838.984	1967
839.233	1935
839.483	1846
839.732	1835
839.982	1901
840.231	1957
840.481	1965
840.73	1852
840.979	1899
841.229	1907
841.478	1890
841.728	1760
841.977	1758
842.227	1825
842.476	1784
842.725	1761
842.975	1797
843.224	1925
843.474	1965
843.723	1831
843.972	1799
844.222	1854
844.471	1884
844.72	1777
844.97	1782
845.219	1869
845.468	1863
845.718	1811
845.967	1820
846.216	1844
846.466	1890
846.715	1753
846.964	1785
847.214	1789
847.463	1756
847.712	1774
847.961	1738
848.211	1804
848.46	1773
848.709	1708
848.958	1678
849.208	1735
849.457	1728
849.706	1743
849.955	1691
850.205	1671
850.454	1837
850.703	1853
850.952	1797
851.201	1817
851.451	1764
851.7	1754
851.949	1609
852.198	1731
852.447	1711
852.696	1629
852.946	1664
853.195	1746
853.444	1761
853.693	1559
853.942	1539
854.191	1694
854.44	1742
854.689	1641
854.939	1609
855.188	1590
855.437	1630
855.686	1588
855.935	1596
856.184	1651
856.433	1699
856.682	1653
856.931	1610
857.18	1650
857.429	1563
857.678	1519
857.927	1575
858.176	1596
858.425	1527
858.674	1440
858.924	1520
859.173	1553
859.422	1584
859.671	1457
859.92	1503
860.169	1530
860.417	1579
860.666	1551
860.915	1486
861.164	1513
861.413	1489
861.662	1409
861.911	1425
862.16	1563
862.409	1537
862.658	1410
862.907	1436
863.156	1533
863.405	1506
863.654	1366
863.903	1343
864.151	1430
864.4	1471
864.649	1426
864.898	1477
865.147	1526
865.396	1555
865.645	1405
865.894	1437
866.142	1562
866.391	1455
866.64	1334
866.889	1448
867.138	1597
867.387	1486
867.635	1389
867.884	1440
868.133	1549
868.382	1444
868.631	1310
868.879	1313
869.128	1414
869.377	1385
869.626	1352
869.874	1357
870.123	1435
870.372	1367
870.621	1252
870.869	1297
871.118	1401
871.367	1377
871.616	1251
871.864	1391
872.113	1432
872.362	1372
872.61	1319
872.859	1367
873.108	1422
873.357	1301
873.605	1236
873.854	1261
874.103	1261
874.351	1271
874.6	1237
874.848	1280
875.097	1337
875.346	1316
875.594	1177
875.843	1298
876.092	1468
876.34	1326
876.589	1244
876.837	1164
877.086	1233
877.335	1301
877.583	1253
877.832	1295
878.08	1407
878.329	1276
878.578	1211
878.826	1250
879.075	1307
879.323	1304
879.572	1247
879.82	1369
880.069	1293
880.317	1289
880.566	1162
880.814	1287
881.063	1392
881.311	1273
881.56	1291
881.808	1201
882.057	1260
882.305	1231
882.554	1226
882.802	1152
883.051	1193
883.299	1179
883.548	1129
883.796	1227
884.045	1237
884.293	1170
884.541	1040
884.79	1033
885.038	1141
885.287	1151
885.535	1154
885.783	1174
886.032	1125
886.28	1081
886.529	1034
886.777	1108
887.025	1249
887.274	1124
887.522	1040
887.77	1065
888.019	1101
888.267	1055
888.516	987
888.764	1024
889.012	1127
889.261	1088
889.509	1009
889.757	1016
890.005	1073
890.254	1025
890.502	1046
890.75	1253
890.999	1228
891.247	1106
891.495	1071
891.743	1071
891.992	1202
892.24	1087
892.488	990
892.737	1004
892.985	1078
893.233	1061
893.481	1012
893.729	983
893.978	1157
894.226	1149
894.474	979
894.722	976
894.97	1024
895.219	1003
895.467	1019
895.715	1049
895.963	1029
896.211	965
896.46	883
896.708	973
896.956	1070
897.204	1151
897.452	1038
897.7	951
897.948	1043
898.197	1009
898.445	936
898.693	966
898.941	1024
899.189	1022
899.437	942
899.685	1021
899.933	973
900.181	985
900.43	891
900.678	910
900.926	963
901.174	924
901.422	878
901.67	926
901.918	1011
902.166	949
902.414	802
902.662	855
902.91	957
903.158	939
903.406	868
903.654	893
903.902	921
904.15	892
904.398	804
904.646	873
904.894	952
905.142	951
905.39	905
905.638	839
905.886	861
906.134	841
906.382	838
906.63	819
906.878	909
907.126	873
907.374	802
907.622	830
907.869	948
908.117	915
908.365	829
908.613	814
908.861	829
909.109	776
909.357	731
909.605	810
909.853	894
910.1	827
910.348	665
910.596	696
910.844	862
911.092	904
911.34	804
911.588	828
911.835	879
912.083	831
912.331	810
912.579	823
912.827	991
913.075	874
913.322	734
913.57	756
913.818	893
914.066	815
914.313	713
914.561	793
914.809	819
915.057	757
915.305	735
915.552	743
915.8	825
916.048	736
916.296	661
916.543	785
916.791	873
917.039	793
917.286	677
917.534	708
917.782	834
918.03	748
918.277	627
918.525	625
918.773	735
919.02	741
919.268	685
919.516	704
919.763	687
920.011	711
920.259	598
920.506	692
920.754	802
921.002	793
921.249	716
921.497	674
921.745	717
921.992	728
922.24	595
922.487	722
922.735	906
922.983	795
923.23	693
923.478	643
923.725	708
923.973	733
924.221	696
924.468	731
924.716	723
924.963	681
925.211	611
925.458	702
925.706	796
925.953	807
926.201	615
926.448	601
926.696	713
926.944	677
927.191	611
927.439	612
927.686	617
927.934	655
928.181	563
928.429	571
928.676	637
928.923	555
929.171	541
929.418	688
929.666	731
929.913	696
930.161	493
930.408	542
930.656	626
930.903	642
931.151	515
931.398	571
931.645	692
931.893	569
932.14	544
932.388	562
932.635	716
932.882	750
933.13	647
933.377	557
933.625	615
933.872	545
934.119	490
934.367	548
934.614	550
934.861	530
935.109	529
935.356	570
935.603	615
935.851	541
936.098	475
936.345	576
936.593	613
936.84	557
937.087	409
937.335	505
937.582	582
937.829	585
938.077	532
938.324	507
938.571	594
938.818	514
939.066	468
939.313	457
939.56	580
939.807	572
940.055	439
940.302	484
940.549	629
940.796	556
941.044	483
941.291	508
941.538	657
941.785	511
942.033	484
942.28	577
942.527	595
942.774	573
943.021	412
943.269	456
943.516	570
943.763	587
944.01	507
944.257	567
944.504	613
944.752	563
944.999	524
945.246	461
945.493	512
945.74	498
945.987	445
946.234	524
946.482	587
946.729	483
946.976	431
947.223	447
947.47	598
947.717	567
947.964	574
948.211	523
948.458	579
948.705	515
948.952	419
949.2	498
949.447	609
949.694	612
949.941	440
950.188	408
950.435	433
950.682	470
950.929	351
951.176	396
951.423	538
951.67	532
951.917	488
952.164	491
952.411	544
952.658	579
952.905	441
953.152	378
953.399	480
953.646	468
953.893	381
954.14	422
954.387	464
954.634	436
954.881	377
955.128	435
955.375	444
955.622	448
955.869	443
956.115	412
956.362	484
956.609	452
956.856	390
957.103	390
957.35	470
957.597	491
957.844	420
958.091	402
958.338	481
958.585	430
958.831	246
959.078	308
959.325	477
959.572	380
959.819	283
960.066	261
960.313	415
960.559	385
960.806	253
961.053	299
961.3	464
961.547	482
961.794	275
962.04	437
962.287	463
962.534	348
962.781	316
963.028	382
963.274	485
963.521	397
963.768	325
964.015	346
964.262	501
964.508	353
964.755	276
965.002	300
965.249	347
965.495	300
965.742	253
965.989	247
966.236	397
966.482	335
966.729	249
966.976	238
967.222	332
967.469	345
967.716	268
967.963	258
968.209	318
968.456	292
968.703	185
968.949	293
969.196	460
969.443	457
969.689	246
969.936	216
970.183	336
970.429	273
970.676	206
970.923	284
971.169	344
971.416	281
971.663	247
971.909	304
972.156	367
972.402	347
972.649	275
972.896	302
973.142	316
973.389	320
973.635	226
973.882	343
974.129	395
974.375	289
974.622	204
974.868	223
975.115	311
975.361	254
975.608	215
975.855	336
976.101	348
976.348	269
976.594	218
976.841	272
977.087	274
977.334	309
977.58	197
977.827	194
978.073	344
978.32	314
978.566	159
978.813	249
979.059	283
979.306	270
979.552	180
979.799	257
980.045	260
980.292	253
980.538	193
980.785	184
981.031	209
981.278	194
981.524	141
981.771	282
982.017	412
982.263	306
982.51	173
982.756	253
983.003	307
983.249	237
983.495	160
983.742	150
983.988	233
984.235	253
984.481	143
984.727	161
984.974	295
985.22	257
985.467	197
985.713	196
985.959	294
986.206	284
986.452	206
986.698	235
986.945	238
987.191	299
987.437	299
987.684	233
987.93	375
988.176	286
988.423	87
988.669	181
988.915	365
989.162	207
989.408	114
989.654	177
989.901	191
990.147	202
990.393	219
990.639	276
990.886	290
991.132	331
991.378	266
991.625	384
991.871	352
992.117	268
992.363	207
992.61	228
992.856	334
993.102	206
993.348	152
993.594	180
993.841	209
994.087	349
994.333	216
994.579	191
994.826	243
995.072	251
995.318	50
995.564	104
995.81	233
996.057	182
996.303	91
996.549	103
996.795	205
997.041	201
997.287	150
997.534	158
997.78	207
998.026	207
998.272	102
998.518	125
998.764	261
999.01	263
999.256	171
999.503	128
999.749	139
999.995	118
1000.241	97
1000.487	176
1000.733	226
1000.979	176
1001.225	134
1001.471	198
1001.718	245
1001.964	267
1002.21	113
1002.456	155
1002.702	292
1002.948	198
1003.194	115
1003.44	100
1003.686	204
1003.932	147
1004.178	92
1004.424	162
1004.67	313
1004.916	291
1005.162	176
1005.408	126
1005.654	250
1005.9	118
1006.146	49
1006.392	120
1006.638	195
1006.884	164
1007.13	68
1007.376	38
1007.622	236
1007.868	245
1008.114	85
1008.36	163
1008.606	199
1008.852	226
1009.098	155
1009.344	193
1009.59	185
1009.836	51
1010.082	-21
1010.328	67
1010.574	155
1010.82	77
1011.065	3
1011.311	20
1011.557	135
1011.803	114
1012.049	38
1012.295	86
1012.541	133
1012.787	139
1013.033	4
1013.278	-33
1013.524	122
1013.77	209
1014.016	98
1014.262	98
1014.508	214
1014.754	58
1015	7
1015.245	176
1015.491	201
1015.737	156
1015.983	25
1016.229	4
1016.475	135
1016.72	248
1016.966	260
1017.212	138
1017.458	206
1017.704	135
1017.949	9
1018.195	185
1018.441	269
1018.687	231
1018.933	70
1019.178	40
1019.424	214
1019.67	226
1019.916	26
1020.161	79
1020.407	120
1020.653	59
1020.899	-15
1021.144	57
1021.39	138
1021.636	62
1021.882	-38
1022.127	75
1022.373	222
1022.619	162
1022.865	65
1023.11	62
1023.356	188
1023.602	109
1023.847	58
1024.093	92
1024.339	56
1024.584	52
1024.83	42
1025.076	40
1025.321	165
1025.567	129
1025.813	7
1026.058	88
1026.304	153
1026.55	81
1026.795	43
1027.041	54
1027.287	134
1027.532	141
1027.778	94
1028.024	76
1028.269	115
1028.515	31
1028.76	-26
1029.006	55
1029.252	158
1029.497	86
1029.743	67
1029.989	2
1030.234	133
1030.48	188
1030.725	-8
1030.971	29
1031.216	161
1031.462	76
1031.708	-49
1031.953	-8
1032.199	83
1032.444	98
1032.69	38
1032.935	35
1033.181	151
1033.426	32
1033.672	-112
1033.918	-46
1034.163	51
1034.409	43
1034.654	13
1034.9	126
1035.145	150
1035.391	72
1035.636	-44
1035.882	23
1036.127	28
1036.373	-5
1036.618	-94
1036.864	5
1037.109	134
1037.355	43
1037.6	-32
1037.845	2
1038.091	201
1038.336	172
1038.582	163
1038.827	236
1039.073	81
1039.318	-2
1039.564	-97
1039.809	-12
1040.055	176
1040.3	167
1040.545	-22
1040.791	-8
1041.036	61
1041.282	80
1041.527	137
1041.772	-45
1042.018	18
1042.263	52
1042.509	-91
1042.754	-45
1042.999	86
1043.245	36
1043.49	-121
1043.736	-29
1043.981	42
1044.226	51
1044.472	36
1044.717	44
1044.962	153
1045.208	53
1045.453	-161
1045.698	-84
1045.944	121
1046.189	89
1046.434	-17
1046.68	-17
1046.925	153
1047.17	19
1047.416	-160
1047.661	-46
1047.906	96
1048.152	69
1048.397	-28
1048.642	-24
1048.887	153
1049.133	153
1049.378	-20
1049.623	-46
1049.869	79
1050.114	22
1050.359	-59
1050.604	9
1050.85	155
1051.095	39
1051.34	-63
1051.585	6
1051.831	211
1052.076	51
1052.321	-167
1052.566	-65
1052.812	129
1053.057	36
1053.302	-28
1053.547	47
1053.792	101
1054.038	87
1054.283	-111
1054.528	-25
1054.773	49
1055.018	36
1055.264	-72
1055.509	-92
1055.754	48
1055.999	-26
1056.244	-124
1056.49	-37
1056.735	55
1056.98	-17
1057.225	-113
1057.47	71
1057.715	-5
1057.96	-67
1058.206	-108
1058.451	-4
1058.696	132
1058.941	63
1059.186	-109
1059.431	-75
1059.676	121
1059.922	70
1060.167	154
1060.412	302
1060.657	83
1060.902	27
1061.147	-159
1061.392	-65
1061.637	77
1061.882	-8
1062.127	-160
1062.373	-136
1062.618	124
1062.863	156
1063.108	-47
1063.353	-108
1063.598	-8
1063.843	-21
1064.088	-113
1064.333	-106
1064.578	57
1064.823	80
1065.068	-153
1065.313	-85
1065.558	69
1065.803	58
1066.048	-133
1066.293	-115
1066.538	97
1066.783	21
1067.028	-156
1067.273	-132
1067.518	46
1067.763	-3
1068.008	-168
1068.253	-84
1068.498	79
1068.743	3
1068.988	-141
1069.233	-127
1069.478	84
1069.723	137
1069.968	-61
1070.213	-17
1070.458	96
1070.703	-7
1070.948	-179
1071.193	-55
1071.438	67
1071.683	81
1071.928	-39
1072.173	-39
1072.418	12
1072.663	-25
1072.908	-151
1073.152	-70
1073.397	95
1073.642	-35
1073.887	-71
1074.132	60
1074.377	30
1074.622	-8
1074.867	-115
1075.112	-44
1075.357	137
1075.601	-10
1075.846	-77
1076.091	35
1076.336	72
1076.581	-53
1076.826	-166
1077.071	-55
1077.315	187
1077.56	124
1077.805	-87
1078.05	-67
1078.295	-11
1078.54	-44
1078.785	-167
1079.029	-112
1079.274	72
1079.519	-51
1079.764	-163
1080.009	-52
1080.253	24
1080.498	-71
1080.743	-215
1080.988	-65
1081.233	150
1081.478	76
1081.722	-113
1081.967	-5
1082.212	147
1082.457	43
1082.701	-96
1082.946	-72
1083.191	52
1083.436	-56
1083.681	-197
1083.925	-89
1084.17	1
1084.415	20
1084.66	-187
1084.904	-84
1085.149	3
1085.394	-29
1085.639	-199
1085.883	-95
1086.128	154
1086.373	171
1086.617	-67
1086.862	-128
1087.107	-11
1087.352	-60
1087.596	-140
1087.841	-12
1088.086	37
1088.33	12
1088.575	-229
1088.82	-96
1089.064	80
1089.309	-59
1089.554	-168
1089.798	-144
1090.043	48
1090.288	-2
1090.533	-185
1090.777	-107
1091.022	30
1091.266	49
1091.511	-119
1091.756	-33
1092	116
1092.245	83
1092.49	-154
1092.734	-87
1092.979	99
1093.224	-25
1093.468	-174
1093.713	-123
1093.957	25
1094.202	-38
1094.447	-220
1094.691	-85
1094.936	65
1095.181	16
1095.425	-156
1095.67	-136
1095.914	25
1096.159	8
1096.403	-156
1096.648	-47
1096.893	78
1097.137	-83
1097.382	-228
1097.626	-146
1097.871	20
1098.115	-42
1098.36	-198
1098.605	-103
1098.849	-52
1099.094	-121
1099.338	-193
1099.583	-94
1099.827	132
1100.072	46
1100.316	-166
1100.561	-101
1100.805	58
1101.05	33
1101.294	-173
1101.539	-170
1101.783	-9
1102.028	-4
1102.273	-145
1102.517	-71
1102.761	64
1103.006	-52
1103.25	-282
1103.495	-164
1103.739	54
1103.984	91
1104.228	-94
1104.473	-17
1104.717	52
1104.962	-5
1105.206	-121
1105.451	-140
1105.695	6
1105.94	-22
1106.184	-150
1106.429	-82
1106.673	6
1106.917	68
1107.162	-173
1107.406	-39
1107.651	126
1107.895	-79
1108.14	-186
1108.384	-90
1108.628	128
1108.873	114
1109.117	-136
1109.362	-114
1109.606	-24
1109.85	-24
1110.095	-177
1110.339	-107
1110.584	82
1110.828	31
1111.072	-90
1111.317	-113
1111.561	-17
1111.806	-26
1112.05	-170
1112.294	-80
1112.539	20
1112.783	-5
1113.027	-118
1113.272	-117
1113.516	-36
1113.76	-49
1114.005	-154
1114.249	-82
1114.493	57
1114.738	104
1114.982	-28
1115.226	-75
1115.471	3
1115.715	-15
1115.959	-191
1116.204	-169
1116.448	-3
1116.692	-97
1116.937	-162
1117.181	4
1117.425	-9
1117.67	-78
1117.914	-151
1118.158	-83
1118.402	150
1118.647	74
1118.891	-76
1119.135	-31
1119.38	110
1119.624	26
1119.868	-139
1120.112	-146
1120.357	-61
1120.601	-121
1120.845	-223
1121.089	-128
1121.334	45
