Data from HR4C21111__26__09-58-48-052.txt Node

Date: Mon Feb 22 09:58:48 IST 2021
User: Kapil
Spectrometer: HR4C2111
Trigger mode: 4
Integration Time (sec): 2.300000E0
Scans to average: 1
Electric dark correction enabled: true
Nonlinearity correction enabled: false
Boxcar width: 0
XAxis mode: Wavelengths
Number of Pixels in Spectrum: 3648
>>>>>Begin Spectral Data<<<<<
189.472	-460
189.745	-460
190.017	-460
190.289	-467
190.561	-311
190.834	-35
191.106	-119
191.378	16
191.65	2
191.923	-144
192.195	-100
192.467	132
192.739	119
193.011	-20
193.284	104
193.556	180
193.828	-23
194.1	-112
194.372	-121
194.644	49
194.916	71
195.188	-143
195.46	-74
195.732	59
196.004	-6
196.276	-96
196.548	-64
196.82	80
197.092	64
197.364	-110
197.636	-69
197.908	34
198.18	-32
198.452	-73
198.724	-34
198.996	59
199.268	73
199.54	-53
199.811	-115
200.083	94
200.355	2
200.627	-205
200.899	-69
201.171	44
201.442	-67
201.714	-181
201.986	-97
202.258	59
202.529	105
202.801	-3
203.073	61
203.345	188
203.616	15
203.888	-142
204.16	-158
204.431	72
204.703	-5
204.974	-135
205.246	8
205.518	202
205.789	16
206.061	-124
206.332	-99
206.604	40
206.876	113
207.147	141
207.419	20
207.69	138
207.962	-27
208.233	-173
208.505	16
208.776	171
209.047	88
209.319	-129
209.59	-84
209.862	115
210.133	-24
210.404	-146
210.676	-102
210.947	82
211.219	64
211.49	-128
211.761	-40
212.033	24
212.304	-45
212.575	-176
212.846	-81
213.118	30
213.389	-45
213.66	-98
213.931	-38
214.203	38
214.474	-48
214.745	-130
215.016	141
215.287	432
215.559	60
215.83	-109
216.101	-64
216.372	13
216.643	70
216.914	6
217.185	-72
217.456	161
217.727	9
217.998	-174
218.269	-55
218.54	39
218.811	1
219.082	-97
219.353	-81
219.624	-9
219.895	-25
220.166	-125
220.437	-107
220.708	113
220.979	-5
221.25	-137
221.521	-84
221.792	35
222.063	81
222.334	36
222.604	172
222.875	174
223.146	82
223.417	-168
223.688	-25
223.958	119
224.229	-51
224.5	-199
224.771	-73
225.041	75
225.312	59
225.583	-105
225.854	-54
226.124	94
226.395	-13
226.666	-131
226.936	-92
227.207	76
227.478	-45
227.748	-97
228.019	49
228.289	255
228.56	-34
228.831	-36
229.101	71
229.372	81
229.642	-11
229.913	-156
230.183	-125
230.454	-1
230.724	2
230.995	-89
231.265	-57
231.536	59
231.806	55
232.076	-103
232.347	-111
232.617	31
232.888	44
233.158	-49
233.428	-115
233.699	-8
233.969	-40
234.239	-149
234.51	-74
234.78	51
235.05	-12
235.321	-114
235.591	-57
235.861	70
236.131	-44
236.402	-181
236.672	-99
236.942	36
237.212	34
237.483	-56
237.753	8
238.023	170
238.293	12
238.563	-84
238.833	-102
239.103	64
239.374	-9
239.644	-140
239.914	-15
240.184	134
240.454	3
240.724	-159
240.994	-54
241.264	32
241.534	74
241.804	-8
242.074	-88
242.344	-48
242.614	-67
242.884	-171
243.154	-110
243.424	53
243.694	85
243.964	-76
244.234	-63
244.503	137
244.773	18
245.043	-217
245.313	-135
245.583	129
245.853	94
246.123	-168
246.392	-118
246.662	1
246.932	-20
247.202	-186
247.471	-77
247.741	243
248.011	91
248.281	-149
248.55	-78
248.82	71
249.09	3
249.359	-80
249.629	-78
249.899	58
250.168	67
250.438	-40
250.708	-103
250.977	92
251.247	70
251.516	-116
251.786	-49
252.055	121
252.325	-12
252.595	-110
252.864	-59
253.134	58
253.403	-19
253.673	-163
253.942	-109
254.212	45
254.481	-1
254.75	-133
255.02	-72
255.289	80
255.559	-20
255.828	-129
256.097	-28
256.367	40
256.636	-46
256.906	-113
257.175	22
257.444	280
257.714	75
257.983	-69
258.252	-41
258.521	14
258.791	54
259.06	-99
259.329	-52
259.598	54
259.868	-4
260.137	-116
260.406	20
260.675	103
260.944	26
261.214	-129
261.483	-64
261.752	170
262.021	18
262.29	-162
262.559	-116
262.828	30
263.097	-45
263.366	-192
263.635	-78
263.905	133
264.174	25
264.443	-193
264.712	-97
264.981	48
265.25	-23
265.519	-133
265.788	-144
266.057	33
266.325	72
266.594	-49
266.863	-109
267.132	27
267.401	-4
267.67	-205
267.939	-141
268.208	49
268.477	70
268.745	-125
269.014	-103
269.283	129
269.552	42
269.821	-103
270.089	7
270.358	7
270.627	-9
270.896	-114
271.164	-154
271.433	40
271.702	107
271.971	-139
272.239	-136
272.508	17
272.777	-30
273.045	-10
273.314	-33
273.583	89
273.851	-19
274.12	-154
274.388	-119
274.657	8
274.926	2
275.194	-161
275.463	-83
275.731	19
276	184
276.268	395
276.537	-74
276.805	44
277.074	47
277.342	-158
277.611	-89
277.879	119
278.148	41
278.416	-129
278.684	-121
278.953	-20
279.221	-23
279.49	-192
279.758	-97
280.026	-8
280.295	-2
280.563	-114
280.831	905
281.1	2217
281.368	222
281.636	-86
281.904	-116
282.173	-16
282.441	-47
282.709	-88
282.977	21
283.246	49
283.514	-14
283.782	-63
284.05	9
284.318	56
284.587	-36
284.855	-117
285.123	-40
285.391	65
285.659	40
285.927	-140
286.195	-46
286.463	65
286.732	4
287	-100
287.268	-51
287.536	42
287.804	-26
288.072	-126
288.34	-75
288.608	70
288.876	-16
289.144	-100
289.412	-1
289.68	52
289.948	-27
290.215	-102
290.483	-97
290.751	100
291.019	106
291.287	-167
291.555	-111
291.823	30
292.091	-15
292.358	-62
292.626	-8
292.894	83
293.162	54
293.43	-114
293.697	-83
293.965	56
294.233	-28
294.501	-156
294.768	-61
295.036	78
295.304	49
295.572	-124
295.839	-97
296.107	116
296.375	14
296.642	-116
296.91	-96
297.178	61
297.445	177
297.713	107
297.98	-80
298.248	-15
298.516	-34
298.783	-109
299.051	-108
299.318	26
299.586	-24
299.853	-99
300.121	-83
300.388	58
300.656	6
300.923	-157
301.191	-57
301.458	58
301.726	-2
301.993	-127
302.26	-78
302.528	56
302.795	4
303.063	-68
303.33	-46
303.597	49
303.865	31
304.132	-123
304.399	-121
304.667	-28
304.934	10
305.201	-101
305.469	-7
305.736	69
306.003	58
306.27	-27
306.538	-79
306.805	12
307.072	-19
307.339	-68
307.606	-28
307.874	166
308.141	65
308.408	-130
308.675	-102
308.942	-39
309.209	-70
309.477	-138
309.744	-94
310.011	26
310.278	48
310.545	-28
310.812	-40
311.079	158
311.346	197
311.613	59
311.88	-36
312.147	-71
312.414	-39
312.681	-97
312.948	-24
313.215	125
313.482	75
313.749	-109
314.016	-180
314.283	-40
314.55	65
314.817	-104
315.083	-120
315.35	-83
315.617	-144
315.884	-136
316.151	69
316.418	166
316.684	-2
316.951	-166
317.218	-108
317.485	0
317.752	-57
318.018	-108
318.285	-4
318.552	28
318.819	-53
319.085	-127
319.352	-47
319.619	50
319.885	-19
320.152	-183
320.419	-96
320.685	45
320.952	-20
321.219	-56
321.485	76
321.752	17
322.019	-39
322.285	48
322.552	6
322.818	131
323.085	-18
323.351	-120
323.618	-12
323.884	58
324.151	-49
324.417	-26
324.684	-72
324.95	-41
325.217	-142
325.483	-172
325.75	-19
326.016	15
326.283	-11
326.549	-172
326.815	-57
327.082	119
327.348	27
327.615	-87
327.881	-23
328.147	113
328.414	137
328.68	13
328.946	-34
329.212	38
329.479	20
329.745	-107
330.011	-107
330.278	15
330.544	-30
330.81	-35
331.076	-23
331.342	-6
331.609	-25
331.875	-72
332.141	-88
332.407	23
332.673	5
332.94	-7
333.206	-33
333.472	66
333.738	94
334.004	-105
334.27	-1
334.536	14
334.802	-39
335.068	-98
335.334	3
335.6	32
335.866	-25
336.132	-151
336.398	-78
336.664	-12
336.93	-28
337.196	-67
337.462	-8
337.728	32
337.994	-24
338.26	-70
338.526	-34
338.792	-30
339.058	-46
339.324	-143
339.59	-9
339.856	68
340.121	-51
340.387	-109
340.653	93
340.919	169
341.185	76
341.45	-59
341.716	45
341.982	124
342.248	-37
342.514	-71
342.779	28
343.045	55
343.311	15
343.576	-80
343.842	-17
344.108	149
344.374	19
344.639	-96
344.905	-80
345.171	75
345.436	-57
345.702	-104
345.967	85
346.233	119
346.499	54
346.764	-165
347.03	-48
347.295	-2
347.561	29
347.826	-10
348.092	-85
348.357	13
348.623	1
348.888	-85
349.154	-53
349.419	77
349.685	46
349.95	-23
350.216	-15
350.481	86
350.747	-8
351.012	-142
351.277	-60
351.543	80
351.808	30
352.074	-136
352.339	-80
352.604	93
352.87	66
353.135	-55
353.4	-13
353.666	60
353.931	39
354.196	-89
354.461	-77
354.727	97
354.992	67
355.257	-57
355.522	46
355.788	73
356.053	133
356.318	-8
356.583	-30
356.848	186
357.113	300
357.379	18
357.644	0
357.909	178
358.174	225
358.439	-39
358.704	46
358.969	160
359.234	176
359.499	1
359.765	66
360.03	202
360.295	210
360.56	28
360.825	91
361.09	303
361.355	128
361.62	86
361.885	129
362.15	114
362.415	143
362.679	92
362.944	257
363.209	269
363.474	287
363.739	219
364.004	120
364.269	210
364.534	255
364.799	213
365.063	216
365.328	329
365.593	335
365.858	206
366.123	212
366.387	344
366.652	285
366.917	187
367.182	242
367.447	384
367.711	348
367.976	284
368.241	368
368.505	446
368.77	354
369.035	330
369.299	400
369.564	447
369.829	389
370.093	352
370.358	352
370.623	471
370.887	498
371.152	363
371.416	425
371.681	486
371.946	416
372.21	386
372.475	548
372.739	553
373.004	493
373.268	486
373.533	560
373.797	631
374.062	630
374.326	468
374.591	575
374.855	658
375.12	600
375.384	468
375.648	575
375.913	737
376.177	754
376.442	648
376.706	662
376.97	781
377.235	759
377.499	759
377.763	755
378.028	753
378.292	814
378.556	754
378.821	694
379.085	817
379.349	770
379.614	716
379.878	862
380.142	1051
380.406	973
380.671	954
380.935	1149
381.199	1274
381.463	1130
381.727	1059
381.991	1052
382.256	1139
382.52	1106
382.784	1142
383.048	1288
383.312	1210
383.576	1236
383.84	1139
384.104	1200
384.369	1340
384.633	1251
384.897	1143
385.161	1284
385.425	1415
385.689	1362
385.953	1318
386.217	1329
386.481	1477
386.745	1527
387.009	1478
387.273	1437
387.537	1490
387.801	1587
388.064	1561
388.328	1643
388.592	1705
388.856	1712
389.12	1624
389.384	1699
389.648	1770
389.912	1863
390.176	1882
390.439	1996
390.703	1824
390.967	1819
391.231	1773
391.495	1837
391.758	1938
392.022	1984
392.286	1872
392.55	1901
392.813	2030
393.077	2111
393.341	2059
393.605	2132
393.868	2113
394.132	2143
394.396	2110
394.659	2269
394.923	2243
395.187	2177
395.45	2192
395.714	2273
395.978	2304
396.241	2331
396.505	2287
396.768	2396
397.032	2454
397.295	2491
397.559	2424
397.823	2404
398.086	2559
398.35	2526
398.613	2426
398.877	2536
399.14	2727
399.404	2796
399.667	2679
399.931	2610
400.194	2727
400.457	2736
400.721	2758
400.984	2873
401.248	2838
401.511	2826
401.775	2684
402.038	2792
402.301	3031
402.565	2994
402.828	2802
403.091	2898
403.355	3095
403.618	3079
403.881	3083
404.145	3123
404.408	3183
404.671	3113
404.934	3158
405.198	3250
405.461	3281
405.724	3306
405.987	3319
406.251	3400
406.514	3536
406.777	3380
407.04	3283
407.303	3253
407.567	3396
407.83	3509
408.093	3400
408.356	3483
408.619	3580
408.882	3650
409.145	3557
409.408	3516
409.672	3663
409.935	3626
410.198	3473
410.461	3543
410.724	3808
410.987	3758
411.25	3608
411.513	3731
411.776	3791
412.039	3660
412.302	3624
412.565	3705
412.828	3749
413.091	3764
413.354	3659
413.617	3644
413.879	3732
414.142	3756
414.405	3592
414.668	3613
414.931	3723
415.194	3692
415.457	3639
415.72	3725
415.983	3695
416.245	3720
416.508	3631
416.771	3570
417.034	3713
417.297	3689
417.559	3645
417.822	3634
418.085	3760
418.348	3729
418.61	3627
418.873	3624
419.136	3660
419.399	3670
419.661	3694
419.924	3666
420.187	3760
420.449	3750
420.712	3698
420.975	3701
421.237	3768
421.5	3788
421.762	3891
422.025	3902
422.288	3955
422.55	3804
422.813	3687
423.075	3777
423.338	3888
423.601	3943
423.863	3922
424.126	3972
424.388	4103
424.651	4016
424.913	4020
425.176	4065
425.438	4015
425.701	4031
425.963	3924
426.225	3947
426.488	4014
426.75	4068
427.013	4082
427.275	4153
427.538	4159
427.8	4195
428.062	4114
428.325	4116
428.587	4202
428.849	4219
429.112	4242
429.374	4179
429.636	4179
429.899	4290
430.161	4225
430.423	4285
430.686	4464
430.948	4449
431.21	4257
431.472	4230
431.735	4387
431.997	4387
432.259	4322
432.521	4210
432.783	4325
433.046	4306
433.308	4212
433.57	4297
433.832	4546
434.094	4384
434.356	4225
434.618	4363
434.881	4442
435.143	4542
435.405	4493
435.667	4447
435.929	4507
436.191	4494
436.453	4387
436.715	4528
436.977	4672
437.239	4685
437.501	4592
437.763	4573
438.025	4679
438.287	4636
438.549	4572
438.811	4532
439.073	4581
439.335	4642
439.597	4547
439.859	4543
440.121	4726
440.383	4609
440.645	4556
440.907	4607
441.168	4650
441.43	4646
441.692	4664
441.954	4737
442.216	4747
442.478	4695
442.74	4596
443.001	4705
443.263	4851
443.525	4697
443.787	4583
444.048	4588
444.31	4623
444.572	4696
444.834	4678
445.095	4653
445.357	4848
445.619	4651
445.881	4525
446.142	4603
446.404	4607
446.666	4642
446.927	4680
447.189	4804
447.451	4855
447.712	4696
447.974	4549
448.235	4567
448.497	4647
448.759	4618
449.02	4622
449.282	4556
449.543	4720
449.805	4753
450.066	4487
450.328	4621
450.59	4866
450.851	4647
451.113	4510
451.374	4489
451.636	4720
451.897	4754
452.158	4674
452.42	4743
452.681	4794
452.943	4604
453.204	4587
453.466	4611
453.727	4616
453.988	4666
454.25	4574
454.511	4655
454.773	4714
455.034	4794
455.295	4521
455.557	4678
455.818	4723
456.079	4673
456.341	4800
456.602	4857
456.863	4879
457.124	4773
457.386	4623
457.647	4592
457.908	4694
458.169	4829
458.431	4692
458.692	4784
458.953	4799
459.214	4808
459.476	4959
459.737	5119
459.998	5064
460.259	4884
460.52	4891
460.781	5025
461.043	5222
461.304	5109
461.565	4891
461.826	4949
462.087	5122
462.348	5271
462.609	5224
462.87	5209
463.131	5148
463.392	5313
463.653	5348
463.914	5370
464.175	5349
464.436	5405
464.697	5450
464.958	5290
465.219	5306
465.48	5444
465.741	5450
466.002	5387
466.263	5622
466.524	5630
466.785	5466
467.046	5556
467.307	5726
467.568	5792
467.829	5758
468.089	5752
468.35	5800
468.611	5712
468.872	5677
469.133	5940
469.394	6124
469.655	6165
469.915	6065
470.176	5922
470.437	6074
470.698	6253
470.958	6191
471.219	6212
471.48	6368
471.741	6491
472.001	6462
472.262	6471
472.523	6706
472.784	6781
473.044	6691
473.305	6695
473.566	6700
473.826	6836
474.087	6868
474.348	6957
474.608	7084
474.869	7068
475.129	6969
475.39	7028
475.651	7226
475.911	7453
476.172	7339
476.432	7431
476.693	7655
476.953	7498
477.214	7555
477.475	7625
477.735	7633
477.996	7774
478.256	7675
478.517	7778
478.777	7977
479.038	8122
479.298	8215
479.558	8231
479.819	8333
480.079	8354
480.34	8395
480.6	8343
480.861	8544
481.121	8604
481.381	8580
481.642	8606
481.902	8682
482.162	8672
482.423	8722
482.683	8884
482.943	8970
483.204	8974
483.464	8908
483.724	8977
483.985	9107
484.245	9190
484.505	9176
484.765	9271
485.026	9329
485.286	9368
485.546	9364
485.806	9432
486.067	9440
486.327	9395
486.587	9411
486.847	9512
487.107	9611
487.368	9654
487.628	9670
487.888	9821
488.148	9928
488.408	9804
488.668	9866
488.928	9867
489.188	9852
489.449	9928
489.709	9813
489.969	9902
490.229	10060
490.489	10051
490.749	9933
491.009	9860
491.269	9962
491.529	10010
491.789	10020
492.049	10095
492.309	10234
492.569	10118
492.829	10100
493.089	10065
493.349	10276
493.609	10214
493.869	10076
494.129	10215
494.389	10331
494.648	10120
494.908	10143
495.168	10240
495.428	10326
495.688	10250
495.948	10130
496.208	10170
496.467	10253
496.727	10272
496.987	10290
497.247	10323
497.507	10356
497.767	10343
498.026	10191
498.286	10336
498.546	10441
498.806	10343
499.065	10383
499.325	10321
499.585	10299
499.845	10315
500.104	10368
500.364	10451
500.624	10409
500.883	10370
501.143	10426
501.403	10489
501.662	10553
501.922	10533
502.182	10377
502.441	10326
502.701	10335
502.96	10495
503.22	10442
503.48	10378
503.739	10439
503.999	10352
504.258	10341
504.518	10456
504.777	10504
505.037	10477
505.296	10422
505.556	10387
505.815	10524
506.075	10661
506.334	10536
506.594	10306
506.853	10340
507.113	10394
507.372	10289
507.632	10364
507.891	10427
508.151	10436
508.41	10320
508.669	10394
508.929	10449
509.188	10352
509.447	10349
509.707	10313
509.966	10438
510.226	10451
510.485	10406
510.744	10476
511.004	10498
511.263	10398
511.522	10345
511.781	10432
512.041	10534
512.3	10497
512.559	10527
512.818	10540
513.078	10544
513.337	10501
513.596	10353
513.855	10403
514.115	10517
514.374	10458
514.633	10379
514.892	10364
515.151	10559
515.41	10682
515.67	10538
515.929	10462
516.188	10592
516.447	10520
516.706	10412
516.965	10526
517.224	10587
517.483	10538
517.743	10433
518.002	10555
518.261	10660
518.52	10658
518.779	10546
519.038	10543
519.297	10557
519.556	10595
519.815	10481
520.074	10495
520.333	10642
520.592	10635
520.851	10488
521.11	10615
521.369	10746
521.628	10569
521.887	10474
522.145	10519
522.404	10569
522.663	10629
522.922	10499
523.181	10527
523.44	10639
523.699	10673
523.958	10544
524.217	10506
524.475	10545
524.734	10522
524.993	10557
525.252	10543
525.511	10608
525.769	10576
526.028	10482
526.287	10576
526.546	10608
526.805	10542
527.063	10482
527.322	10478
527.581	10553
527.839	10514
528.098	10524
528.357	10518
528.616	10493
528.874	10455
529.133	10462
529.392	10554
529.65	10557
529.909	10477
530.168	10359
530.426	10416
530.685	10607
530.943	10563
531.202	10408
531.461	10424
531.719	10594
531.978	10492
532.236	10394
532.495	10502
532.753	10578
533.012	10538
533.271	10431
533.529	10351
533.788	10419
534.046	10411
534.305	10438
534.563	10642
534.822	10697
535.08	10555
535.338	10440
535.597	10530
535.855	10576
536.114	10468
536.372	10498
536.631	10592
536.889	10651
537.147	10585
537.406	10345
537.664	10516
537.923	10717
538.181	10675
538.439	10454
538.698	10637
538.956	10676
539.214	10603
539.473	10591
539.731	10608
539.989	10723
540.248	10670
540.506	10655
540.764	10667
541.022	10781
541.281	10864
541.539	10719
541.797	10685
542.055	10823
542.314	10923
542.572	10921
542.83	10871
543.088	10908
543.346	10820
543.604	10764
543.863	10880
544.121	11050
544.379	11033
544.637	10979
544.895	11141
545.153	11215
545.411	11015
545.67	10979
545.928	11138
546.186	11247
546.444	11248
546.702	11187
546.96	11291
547.218	11335
547.476	11386
547.734	11332
547.992	11405
548.25	11592
548.508	11533
548.766	11473
549.024	11499
549.282	11563
549.54	11658
549.798	11676
550.056	11687
550.314	11800
550.572	11797
550.83	11694
551.088	11812
551.346	11941
551.603	11979
551.861	11876
552.119	11992
552.377	12060
552.635	11990
552.893	11953
553.151	12081
553.409	12234
553.666	12215
553.924	12128
554.182	12153
554.44	12331
554.698	12383
554.955	12254
555.213	12297
555.471	12461
555.729	12460
555.986	12323
556.244	12449
556.502	12660
556.76	12573
557.017	12530
557.275	12580
557.533	12706
557.79	12628
558.048	12493
558.306	12618
558.563	12770
558.821	12743
559.079	12700
559.336	12802
559.594	12801
559.852	12749
560.109	12699
560.367	12807
560.624	12903
560.882	12895
561.14	12895
561.397	13019
561.655	12884
561.912	12898
562.17	12843
562.427	12901
562.685	13020
562.942	13056
563.2	12945
563.457	12943
563.715	12991
563.972	13106
564.23	12890
564.487	12827
564.745	12919
565.002	12959
565.26	12899
565.517	12878
565.774	12918
566.032	12947
566.289	12864
566.547	12888
566.804	13002
567.061	12999
567.319	12903
567.576	12935
567.833	13002
568.091	13010
568.348	12904
568.605	12956
568.863	12955
569.12	12862
569.377	12845
569.635	12826
569.892	12818
570.149	12786
570.406	12660
570.664	12743
570.921	12883
571.178	12697
571.435	12646
571.693	12644
571.95	12690
572.207	12622
572.464	12547
572.721	12614
572.979	12636
573.236	12550
573.493	12464
573.75	12476
574.007	12564
574.264	12476
574.521	12358
574.779	12276
575.036	12355
575.293	12265
575.55	12223
575.807	12147
576.064	12112
576.321	12108
576.578	11945
576.835	11943
577.092	12067
577.349	11945
577.606	11758
577.863	11728
578.12	11800
578.377	11792
578.634	11568
578.891	11579
579.148	11630
579.405	11467
579.662	11367
579.919	11372
580.176	11342
580.433	11352
580.69	11226
580.947	11178
581.204	11182
581.461	10976
581.717	10869
581.974	11080
582.231	11071
582.488	10826
582.745	10562
583.002	10623
583.259	10807
583.515	10722
583.772	10500
584.029	10535
584.286	10598
584.543	10405
584.799	10347
585.056	10316
585.313	10336
585.57	10257
585.826	10132
586.083	10216
586.34	10278
586.597	10007
586.853	9831
587.11	9825
587.367	9962
587.623	9959
587.88	9789
588.137	9617
588.393	9710
588.65	9578
588.907	9417
589.163	9477
589.42	9542
589.677	9486
589.933	9388
590.19	9359
590.446	9439
590.703	9442
590.96	9185
591.216	9066
591.473	9177
591.729	9180
591.986	9094
592.242	9110
592.499	9266
592.755	9051
593.012	8930
593.268	8994
593.525	8944
593.781	9001
594.038	8888
594.294	8856
594.551	8805
594.807	8777
595.064	8838
595.32	8788
595.576	8801
595.833	8816
596.089	8624
596.346	8715
596.602	8782
596.858	8857
597.115	8726
597.371	8728
597.628	8681
597.884	8632
598.14	8547
598.397	8753
598.653	8796
598.909	8642
599.166	8528
599.422	8609
599.678	8643
599.934	8577
600.191	8434
600.447	8509
600.703	8601
600.959	8470
601.216	8289
601.472	8356
601.728	8521
601.984	8453
602.241	8352
602.497	8391
602.753	8499
603.009	8412
603.265	8386
603.521	8541
603.778	8590
604.034	8390
604.29	8287
604.546	8320
604.802	8421
605.058	8347
605.314	8293
605.571	8401
605.827	8398
606.083	8375
606.339	8330
606.595	8373
606.851	8493
607.107	8466
607.363	8256
607.619	8208
607.875	8434
608.131	8374
608.387	8135
608.643	8213
608.899	8340
609.155	8316
609.411	8237
609.667	8233
609.923	8227
610.179	8192
610.435	8078
610.691	8136
610.947	8232
611.203	8125
611.459	8070
611.714	8143
611.97	8271
612.226	8197
612.482	8001
612.738	8103
612.994	8300
613.25	8133
613.505	8024
613.761	8004
614.017	8057
614.273	8029
614.529	7957
614.785	7945
615.04	7948
615.296	7954
615.552	7954
615.808	7955
616.063	8017
616.319	7984
616.575	7811
616.831	7867
617.086	8044
617.342	7960
617.598	7804
617.854	7902
618.109	7961
618.365	7771
618.621	7656
618.876	7743
619.132	7830
619.388	7759
619.643	7530
619.899	7628
620.155	7776
620.41	7682
620.666	7548
620.921	7608
621.177	7724
621.433	7732
621.688	7606
621.944	7512
622.199	7535
622.455	7567
622.71	7418
622.966	7502
623.221	7479
623.477	7441
623.732	7435
623.988	7359
624.243	7437
624.499	7407
624.754	7278
625.01	7333
625.265	7327
625.521	7346
625.776	7237
626.032	7278
626.287	7291
626.543	7199
626.798	7086
627.053	7101
627.309	7209
627.564	7092
627.82	7058
628.075	7129
628.33	7075
628.586	6952
628.841	6844
629.096	6996
629.352	7016
629.607	6922
629.862	6868
630.118	6974
630.373	6874
630.628	6896
630.884	6793
631.139	6793
631.394	6928
631.649	6837
631.905	6713
632.16	6789
632.415	6887
632.67	6724
632.926	6584
633.181	6547
633.436	6683
633.691	6655
633.946	6494
634.202	6486
634.457	6531
634.712	6504
634.967	6441
635.222	6383
635.477	6504
635.733	6465
635.988	6332
636.243	6314
636.498	6418
636.753	6406
637.008	6245
637.263	6298
637.518	6312
637.773	6287
638.028	6234
638.283	6209
638.539	6236
638.794	6232
639.049	6084
639.304	6073
639.559	6120
639.814	6124
640.069	6016
640.324	5911
640.579	6023
640.834	5995
641.089	5895
641.344	5940
641.598	6105
641.853	5985
642.108	5837
642.363	5761
642.618	5967
642.873	5854
643.128	5740
643.383	5780
643.638	5832
643.893	5871
644.148	5810
644.402	5702
644.657	5755
644.912	5675
645.167	5680
645.422	5740
645.677	5711
645.931	5700
646.186	5643
646.441	5554
646.696	5544
646.951	5601
647.205	5559
647.46	5473
647.715	5516
647.97	5677
648.224	5788
648.479	5582
648.734	5640
648.989	5580
649.243	5490
649.498	5427
649.753	5480
650.007	5503
650.262	5402
650.517	5434
650.771	5463
651.026	5356
651.281	5240
651.535	5346
651.79	5391
652.045	5376
652.299	5269
652.554	5292
652.809	5335
653.063	5464
653.318	5356
653.572	5250
653.827	5384
654.081	5262
654.336	5176
654.591	5156
654.845	5227
655.1	5163
655.354	5090
655.609	5195
655.863	5318
656.118	5311
656.372	5132
656.627	5122
656.881	5214
657.136	5139
657.39	5032
657.645	5153
657.899	5304
658.153	5176
658.408	5094
658.662	5165
658.917	5201
659.171	5091
659.426	4979
659.68	5017
659.934	5157
660.189	5142
660.443	4992
660.697	5125
660.952	5213
661.206	5057
661.46	4952
661.715	5037
661.969	5093
662.223	5032
662.478	4979
662.732	5082
662.986	5093
663.241	5091
663.495	4978
663.749	5043
664.003	5190
664.258	5103
664.512	4998
664.766	5023
665.02	5097
665.275	5138
665.529	4983
665.783	5021
666.037	5105
666.291	5054
666.546	4970
666.8	5044
667.054	5012
667.308	5073
667.562	4961
667.816	5021
668.071	5094
668.325	5039
668.579	5053
668.833	5056
669.087	5210
669.341	5108
669.595	4959
669.849	5080
670.103	5205
670.357	5170
670.612	5098
670.866	5056
671.12	5147
671.374	5144
671.628	5105
671.882	5060
672.136	5140
672.39	5157
672.644	4972
672.898	5201
673.152	5368
673.406	5281
673.66	5188
673.914	5201
674.168	5317
674.422	5223
674.675	5076
674.929	5158
675.183	5314
675.437	5282
675.691	5249
675.945	5331
676.199	5458
676.453	5332
676.707	5184
676.961	5226
677.214	5326
677.468	5351
677.722	5343
677.976	5303
678.23	5403
678.484	5376
678.737	5260
678.991	5307
679.245	5411
679.499	5374
679.753	5298
680.006	5383
680.26	5503
680.514	5522
680.768	5359
681.021	5462
681.275	5435
681.529	5426
681.783	5351
682.036	5453
682.29	5415
682.544	5439
682.797	5406
683.051	5398
683.305	5497
683.559	5512
683.812	5567
684.066	5555
684.32	5611
684.573	5582
684.827	5575
685.08	5583
685.334	5715
685.588	5677
685.841	5567
686.095	5690
686.348	5718
686.602	5723
686.856	5647
687.109	5605
687.363	5658
687.616	5581
687.87	5497
688.123	5572
688.377	5676
688.63	5727
688.884	5689
689.137	5770
689.391	5792
689.644	5666
689.898	5573
690.151	5623
690.405	5737
690.658	5645
690.912	5626
691.165	5693
691.419	5783
691.672	5783
691.926	5713
692.179	5725
692.432	5789
692.686	5779
692.939	5656
693.193	5702
693.446	5862
693.699	5846
693.953	5810
694.206	5768
694.459	5881
694.713	5875
694.966	5712
695.219	5716
695.473	5865
695.726	5733
695.979	5679
696.233	5777
696.486	5828
696.739	5825
696.992	5722
697.246	5856
697.499	5979
697.752	5747
698.006	5670
698.259	5818
698.512	5789
698.765	5749
699.018	5701
699.272	5770
699.525	5807
699.778	5751
700.031	5692
700.284	5711
700.538	5813
700.791	5755
701.044	5728
701.297	5761
701.55	5766
701.803	5741
702.056	5673
702.31	5737
702.563	5832
702.816	5692
703.069	5552
703.322	5660
703.575	5790
703.828	5791
704.081	5698
704.334	5704
704.587	5744
704.84	5672
705.093	5648
705.346	5795
705.599	5767
705.853	5770
706.106	5759
706.359	5989
706.612	5730
706.865	5773
707.118	5630
707.37	5677
707.623	5828
707.876	5736
708.129	5614
708.382	5737
708.635	5827
708.888	5647
709.141	5527
709.394	5656
709.647	5726
709.9	5591
710.153	5490
710.406	5611
710.658	5683
710.911	5628
711.164	5484
711.417	5508
711.67	5568
711.923	5617
712.176	5504
712.428	5495
712.681	5637
712.934	5575
713.187	5483
713.44	5470
713.692	5551
713.945	5454
714.198	5389
714.451	5320
714.704	5460
714.956	5506
715.209	5503
715.462	5479
715.715	5496
715.967	5425
716.22	5297
716.473	5353
716.725	5488
716.978	5465
717.231	5405
717.484	5456
717.736	5359
717.989	5262
718.242	5228
718.494	5341
718.747	5431
718.999	5362
719.252	5326
719.505	5316
719.757	5311
720.01	5284
720.263	5227
720.515	5219
720.768	5261
721.02	5220
721.273	5116
721.525	5039
721.778	5156
722.031	5263
722.283	5101
722.536	5090
722.788	5168
723.041	5077
723.293	4976
723.546	4943
723.798	5057
724.051	5142
724.303	5091
724.556	5079
724.808	5205
725.061	5146
725.313	4987
725.566	4988
725.818	5007
726.071	4966
726.323	4844
726.575	4931
726.828	5104
727.08	5078
727.333	4890
727.585	4900
727.837	4976
728.09	4931
728.342	4731
728.595	4834
728.847	5011
729.099	4799
729.352	4779
729.604	4780
729.856	4896
730.109	4858
730.361	4680
730.613	4835
730.866	4897
731.118	4736
731.37	4668
731.622	4667
731.875	4753
732.127	4814
732.379	4804
732.631	4828
732.884	4777
733.136	4698
733.388	4568
733.64	4636
733.893	4774
734.145	4646
734.397	4503
734.649	4489
734.901	4591
735.154	4531
735.406	4405
735.658	4469
735.91	4618
736.162	4567
736.414	4402
736.667	4492
736.919	4531
737.171	4438
737.423	4359
737.675	4401
737.927	4503
738.179	4440
738.431	4393
738.684	4346
738.936	4437
739.188	4488
739.44	4283
739.692	4280
739.944	4310
740.196	4291
740.448	4218
740.7	4251
740.952	4297
741.204	4319
741.456	4222
741.708	4207
741.96	4234
742.212	4300
742.464	4224
742.716	4132
742.968	4250
743.22	4152
743.472	4088
743.724	4181
743.976	4310
744.228	4296
744.48	4026
744.732	4065
744.983	4255
745.235	4222
745.487	4151
745.739	4205
745.991	4216
746.243	4292
746.495	4082
746.747	4106
746.999	4148
747.25	4139
747.502	4102
747.754	4156
748.006	4056
748.258	4179
748.51	4215
748.761	4040
749.013	4115
749.265	4151
749.517	4143
749.768	4180
750.02	4196
750.272	4147
750.524	3949
750.776	3907
751.027	4085
751.279	4112
751.531	3919
751.782	3988
752.034	4060
752.286	3995
752.538	3870
752.789	3913
753.041	3996
753.293	3958
753.544	3865
753.796	3902
754.048	3963
754.299	3974
754.551	3933
754.803	3853
755.054	3884
755.306	3967
755.558	3852
755.809	3825
756.061	3938
756.312	3854
756.564	3836
756.816	3810
757.067	3816
757.319	3781
757.57	3727
757.822	3838
758.073	3895
758.325	3842
758.577	3721
758.828	3706
759.08	3881
759.331	3905
759.583	3732
759.834	3793
760.086	3755
760.337	3719
760.589	3646
760.84	3670
761.092	3747
761.343	3734
761.595	3563
761.846	3665
762.097	3689
762.349	3678
762.6	3530
762.852	3660
763.103	3814
763.355	3642
763.606	3560
763.857	3696
764.109	3773
764.36	3623
764.612	3528
764.863	3629
765.114	3642
765.366	3518
765.617	3435
765.868	3488
766.12	3645
766.371	3652
766.622	3434
766.874	3519
767.125	3651
767.376	3499
767.628	3415
767.879	3487
768.13	3580
768.381	3535
768.633	3510
768.884	3499
769.135	3548
769.386	3502
769.638	3426
769.889	3431
770.14	3464
770.391	3411
770.643	3336
770.894	3312
771.145	3432
771.396	3329
771.647	3228
771.899	3372
772.15	3441
772.401	3406
772.652	3220
772.903	3226
773.154	3590
773.406	3855
773.657	3324
773.908	3305
774.159	3389
774.41	3344
774.661	3219
774.912	3268
775.163	3403
775.414	3365
775.666	3124
775.917	3145
776.168	3209
776.419	3211
776.67	3141
776.921	3164
777.172	3236
777.423	3225
777.674	3226
777.925	3204
778.176	3137
778.427	3164
778.678	3060
778.929	3054
779.18	3155
779.431	3083
779.682	3081
779.933	3116
780.184	3147
780.435	3099
780.686	3072
780.937	3129
781.188	3122
781.439	3219
781.69	3155
781.941	3134
782.191	3103
782.442	3075
782.693	2953
782.944	2949
783.195	3035
783.446	3047
783.697	3056
783.948	2948
784.199	2991
784.449	2936
784.7	2918
784.951	2951
785.202	3114
785.453	3083
785.704	2875
785.954	2876
786.205	2959
786.456	2863
786.707	2769
786.958	2808
787.208	2918
787.459	2859
787.71	2892
787.961	2876
788.211	2929
788.462	2922
788.713	2833
788.964	2816
789.214	2887
789.465	2927
789.716	2850
789.967	2824
790.217	2825
790.468	2804
790.719	2717
790.969	2766
791.22	2824
791.471	2916
791.721	2939
791.972	2792
792.223	2833
792.473	2746
792.724	2722
792.975	2701
793.225	2768
793.476	2754
793.726	2697
793.977	2759
794.228	2873
794.478	2753
794.729	2662
794.979	2778
795.23	2813
795.481	2758
795.731	2603
795.982	2651
796.232	2678
796.483	2660
796.733	2594
796.984	2627
797.234	2678
797.485	2738
797.735	2568
797.986	2571
798.236	2679
798.487	2612
798.737	2640
798.988	2739
799.238	2736
799.489	2623
799.739	2542
799.99	2585
800.24	2686
800.491	2756
800.741	2590
800.991	2519
801.242	2584
801.492	2562
801.743	2512
801.993	2771
802.244	2980
802.494	2590
802.744	2524
802.995	2522
803.245	2558
803.495	2524
803.746	2453
803.996	2532
804.246	2513
804.497	2521
804.747	2408
804.997	2481
805.248	2515
805.498	2455
805.748	2474
805.999	2379
806.249	2449
806.499	2428
806.75	2336
807	2375
807.25	2471
807.5	2403
807.751	2439
808.001	2460
808.251	2466
808.501	2539
808.752	2505
809.002	2460
809.252	2454
809.502	2407
809.752	2354
810.003	2302
810.253	2366
810.503	2403
810.753	2442
811.003	2443
811.254	2470
811.504	2364
811.754	2344
812.004	2364
812.254	2584
812.504	2417
812.754	2322
813.005	2385
813.255	2435
813.505	2369
813.755	2278
814.005	2331
814.255	2337
814.505	2331
814.755	2191
815.005	2234
815.255	2323
815.505	2288
815.756	2346
816.006	2306
816.256	2252
816.506	2216
816.756	2170
817.006	2190
817.256	2292
817.506	2283
817.756	2231
818.006	2221
818.256	2248
818.506	2234
818.756	2119
819.006	2169
819.256	2230
819.506	2175
819.756	2119
820.006	2216
820.255	2268
820.505	2240
820.755	2135
821.005	2150
821.255	2257
821.505	2195
821.755	2118
822.005	2221
822.255	2296
822.505	2202
822.755	2209
823.004	2071
823.254	2115
823.504	2151
823.754	2141
824.004	2103
824.254	2206
824.504	2168
824.753	2210
825.003	2196
825.253	2249
825.503	2108
825.753	2057
826.002	2163
826.252	2368
826.502	2172
826.752	2084
827.002	2082
827.251	2172
827.501	2123
827.751	2036
828.001	2053
828.25	2120
828.5	1996
828.75	1982
829	2097
829.249	2190
829.499	2012
829.749	1991
829.998	2070
830.248	2122
830.498	1980
830.748	1967
830.997	2035
831.247	2134
831.497	2120
831.746	1986
831.996	2089
832.246	2209
832.495	2194
832.745	1959
832.994	1967
833.244	2115
833.494	1979
833.743	1894
833.993	1938
834.243	2036
834.492	2026
834.742	1980
834.991	1971
835.241	2137
835.49	1983
835.74	1870
835.99	1962
836.239	2051
836.489	2086
836.738	1968
836.988	1821
837.237	1917
837.487	2064
837.736	1950
837.986	1901
838.235	1973
838.485	1939
838.734	1919
838.984	1981
839.233	1920
839.483	1833
839.732	1818
839.982	1911
840.231	1948
840.481	1940
840.73	1828
840.979	1889
841.229	1904
841.478	1867
841.728	1724
841.977	1725
842.227	1769
842.476	1752
842.725	1716
842.975	1763
843.224	1873
843.474	1933
843.723	1838
843.972	1813
844.222	1857
844.471	1904
844.72	1798
844.97	1802
845.219	1894
845.468	1868
845.718	1783
845.967	1802
846.216	1872
846.466	1889
846.715	1751
846.964	1775
847.214	1784
847.463	1748
847.712	1726
847.961	1690
848.211	1786
848.46	1785
848.709	1695
848.958	1642
849.208	1724
849.457	1731
849.706	1732
849.955	1674
850.205	1670
850.454	1791
850.703	1819
850.952	1751
851.201	1820
851.451	1743
851.7	1707
851.949	1601
852.198	1699
852.447	1679
852.696	1594
852.946	1637
853.195	1761
853.444	1750
853.693	1542
853.942	1531
854.191	1639
854.44	1696
854.689	1637
854.939	1577
855.188	1554
855.437	1585
855.686	1577
855.935	1617
856.184	1657
856.433	1700
856.682	1598
856.931	1576
857.18	1600
857.429	1537
857.678	1511
857.927	1556
858.176	1586
858.425	1551
858.674	1447
858.924	1513
859.173	1542
859.422	1580
859.671	1450
859.92	1486
860.169	1516
860.417	1581
860.666	1534
860.915	1457
861.164	1484
861.413	1433
861.662	1389
861.911	1441
862.16	1565
862.409	1511
862.658	1376
862.907	1419
863.156	1523
863.405	1513
863.654	1387
863.903	1369
864.151	1452
864.4	1467
864.649	1409
864.898	1452
865.147	1498
865.396	1554
865.645	1382
865.894	1420
866.142	1572
866.391	1440
866.64	1309
866.889	1412
867.138	1588
867.387	1474
867.635	1357
867.884	1411
868.133	1498
868.382	1420
868.631	1279
868.879	1294
869.128	1400
869.377	1360
869.626	1317
869.874	1332
870.123	1427
870.372	1378
870.621	1265
870.869	1288
871.118	1399
871.367	1378
871.616	1260
871.864	1358
872.113	1385
872.362	1378
872.61	1320
872.859	1357
873.108	1395
873.357	1300
873.605	1207
873.854	1241
874.103	1275
874.351	1266
874.6	1231
874.848	1285
875.097	1343
875.346	1335
875.594	1198
875.843	1301
876.092	1451
876.34	1332
876.589	1228
876.837	1129
877.086	1208
877.335	1291
877.583	1266
877.832	1288
878.08	1375
878.329	1260
878.578	1170
878.826	1228
879.075	1305
879.323	1274
879.572	1176
879.82	1326
880.069	1277
880.317	1303
880.566	1160
880.814	1204
881.063	1343
881.311	1259
881.56	1246
881.808	1166
882.057	1243
882.305	1209
882.554	1189
882.802	1115
883.051	1194
883.299	1178
883.548	1127
883.796	1222
884.045	1183
884.293	1100
884.541	1018
884.79	1037
885.038	1165
885.287	1148
885.535	1159
885.783	1183
886.032	1132
886.28	1078
886.529	1011
886.777	1088
887.025	1241
887.274	1120
887.522	1061
887.77	1072
888.019	1079
888.267	1040
888.516	970
888.764	1032
889.012	1123
889.261	1110
889.509	1022
889.757	1042
890.005	1083
890.254	1014
890.502	1021
890.75	1237
890.999	1207
891.247	1126
891.495	1090
891.743	1048
891.992	1161
892.24	1025
892.488	958
892.737	988
892.985	1086
893.233	1074
893.481	998
893.729	946
893.978	1123
894.226	1142
894.474	980
894.722	963
894.97	1008
895.219	992
895.467	1003
895.715	1033
895.963	989
896.211	954
896.46	859
896.708	961
896.956	1062
897.204	1135
897.452	1043
897.7	966
897.948	1003
898.197	975
898.445	924
898.693	931
898.941	999
899.189	987
899.437	935
899.685	1027
899.933	974
900.181	965
900.43	883
900.678	894
900.926	936
901.174	904
901.422	887
901.67	906
901.918	968
902.166	930
902.414	784
902.662	843
902.91	952
903.158	922
903.406	863
903.654	870
903.902	914
904.15	898
904.398	797
904.646	878
904.894	935
905.142	924
905.39	887
905.638	822
905.886	850
906.134	826
906.382	811
906.63	800
906.878	890
907.126	877
907.374	801
907.622	829
907.869	924
908.117	892
908.365	826
908.613	804
908.861	816
909.109	786
909.357	750
909.605	799
909.853	856
910.1	790
910.348	651
910.596	690
910.844	891
911.092	926
911.34	788
911.588	811
911.835	870
912.083	807
912.331	801
912.579	839
912.827	1006
913.075	860
913.322	718
913.57	739
913.818	871
914.066	793
914.313	725
914.561	806
914.809	820
915.057	745
915.305	737
915.552	736
915.8	802
916.048	721
916.296	678
916.543	787
916.791	868
917.039	796
917.286	663
917.534	695
917.782	822
918.03	718
918.277	607
918.525	643
918.773	745
919.02	722
919.268	632
919.516	664
919.763	683
920.011	697
920.259	580
920.506	686
920.754	768
921.002	760
921.249	707
921.497	667
921.745	708
921.992	720
922.24	584
922.487	713
922.735	888
922.983	790
923.23	681
923.478	634
923.725	701
923.973	701
924.221	678
924.468	724
924.716	699
924.963	675
925.211	607
925.458	683
925.706	796
925.953	824
926.201	634
926.448	595
926.696	674
926.944	656
927.191	612
927.439	602
927.686	630
927.934	683
928.181	569
928.429	564
928.676	628
928.923	559
929.171	508
929.418	651
929.666	722
929.913	702
930.161	487
930.408	530
930.656	616
930.903	643
931.151	499
931.398	561
931.645	682
931.893	567
932.14	535
932.388	575
932.635	712
932.882	751
933.13	621
933.377	540
933.625	615
933.872	534
934.119	481
934.367	537
934.614	524
934.861	504
935.109	506
935.356	564
935.603	612
935.851	545
936.098	474
936.345	570
936.593	598
936.84	540
937.087	418
937.335	495
937.582	566
937.829	577
938.077	537
938.324	528
938.571	593
938.818	508
939.066	452
939.313	423
939.56	560
939.807	560
940.055	423
940.302	468
940.549	626
940.796	561
941.044	500
941.291	541
941.538	686
941.785	546
942.033	483
942.28	548
942.527	577
942.774	572
943.021	417
943.269	451
943.516	553
943.763	559
944.01	466
944.257	531
944.504	610
944.752	576
944.999	512
945.246	452
945.493	525
945.74	501
945.987	426
946.234	499
946.482	571
946.729	463
946.976	418
947.223	458
947.47	590
947.717	536
947.964	535
948.211	511
948.458	564
948.705	493
948.952	414
949.2	465
949.447	600
949.694	582
949.941	406
950.188	417
950.435	434
950.682	483
950.929	357
951.176	398
951.423	563
951.67	527
951.917	480
952.164	462
952.411	537
952.658	574
952.905	423
953.152	361
953.399	502
953.646	490
953.893	359
954.14	401
954.387	443
954.634	428
954.881	384
955.128	447
955.375	447
955.622	443
955.869	426
956.115	390
956.362	484
956.609	459
956.856	367
957.103	388
957.35	468
957.597	476
957.844	415
958.091	412
958.338	484
958.585	402
958.831	219
959.078	302
959.325	486
959.572	373
959.819	292
960.066	266
960.313	385
960.559	390
960.806	225
961.053	299
961.3	448
961.547	476
961.794	263
962.04	430
962.287	470
962.534	319
962.781	317
963.028	365
963.274	466
963.521	390
963.768	321
964.015	339
964.262	502
964.508	333
964.755	243
965.002	288
965.249	340
965.495	294
965.742	247
965.989	266
966.236	380
966.482	303
966.729	240
966.976	240
967.222	322
967.469	313
967.716	239
967.963	244
968.209	322
968.456	301
968.703	198
968.949	296
969.196	467
969.443	460
969.689	231
969.936	199
970.183	317
970.429	269
970.676	198
970.923	276
971.169	342
971.416	261
971.663	236
971.909	292
972.156	369
972.402	352
972.649	263
972.896	306
973.142	314
973.389	327
973.635	235
973.882	351
974.129	409
974.375	283
974.622	196
974.868	208
975.115	294
975.361	245
975.608	232
975.855	335
976.101	378
976.348	288
976.594	211
976.841	277
977.087	274
977.334	314
977.58	181
977.827	182
978.073	330
978.32	287
978.566	160
978.813	247
979.059	299
979.306	267
979.552	163
979.799	242
980.045	239
980.292	249
980.538	163
980.785	168
981.031	190
981.278	168
981.524	122
981.771	266
982.017	415
982.263	327
982.51	187
982.756	252
983.003	303
983.249	234
983.495	171
983.742	160
983.988	237
984.235	254
984.481	143
984.727	164
984.974	268
985.22	265
985.467	204
985.713	183
985.959	311
986.206	273
986.452	186
986.698	240
986.945	239
987.191	277
987.437	283
987.684	218
987.93	369
988.176	280
988.423	109
988.669	193
988.915	364
989.162	198
989.408	107
989.654	186
989.901	216
990.147	204
990.393	196
990.639	256
990.886	274
991.132	318
991.378	272
991.625	384
991.871	358
992.117	263
992.363	200
992.61	228
992.856	354
993.102	204
993.348	141
993.594	168
993.841	221
994.087	357
994.333	220
994.579	194
994.826	228
995.072	249
995.318	43
995.564	97
995.81	220
996.057	166
996.303	84
996.549	108
996.795	198
997.041	190
997.287	154
997.534	137
997.78	179
998.026	214
998.272	88
998.518	88
998.764	245
999.01	263
999.256	170
999.503	127
999.749	146
999.995	100
1000.241	75
1000.487	154
1000.733	215
1000.979	164
1001.225	147
1001.471	215
1001.718	248
1001.964	282
1002.21	98
1002.456	117
1002.702	283
1002.948	181
1003.194	120
1003.44	97
1003.686	163
1003.932	128
1004.178	99
1004.424	156
1004.67	288
1004.916	258
1005.162	158
1005.408	119
1005.654	253
1005.9	91
1006.146	22
1006.392	100
1006.638	176
1006.884	157
1007.13	70
1007.376	41
1007.622	223
1007.868	231
1008.114	103
1008.36	162
1008.606	203
1008.852	228
1009.098	164
1009.344	198
1009.59	162
1009.836	14
1010.082	-58
1010.328	86
1010.574	162
1010.82	72
1011.065	-2
1011.311	20
1011.557	141
1011.803	116
1012.049	32
1012.295	89
1012.541	126
1012.787	111
1013.033	-22
1013.278	-22
1013.524	132
1013.77	187
1014.016	101
1014.262	94
1014.508	205
1014.754	50
1015	16
1015.245	172
1015.491	196
1015.737	158
1015.983	15
1016.229	-9
1016.475	119
1016.72	245
1016.966	249
1017.212	132
1017.458	195
1017.704	109
1017.949	-8
1018.195	169
1018.441	258
1018.687	208
1018.933	50
1019.178	41
1019.424	204
1019.67	215
1019.916	13
1020.161	62
1020.407	122
1020.653	66
1020.899	-1
1021.144	75
1021.39	163
1021.636	41
1021.882	-42
1022.127	80
1022.373	230
1022.619	165
1022.865	46
1023.11	44
1023.356	164
1023.602	91
1023.847	29
1024.093	79
1024.339	59
1024.584	38
1024.83	10
1025.076	18
1025.321	148
1025.567	115
1025.813	13
1026.058	91
1026.304	159
1026.55	75
1026.795	54
1027.041	51
1027.287	98
1027.532	133
1027.778	98
1028.024	62
1028.269	102
1028.515	19
1028.76	-44
1029.006	50
1029.252	141
1029.497	56
1029.743	39
1029.989	-12
1030.234	130
1030.48	185
1030.725	-8
1030.971	23
1031.216	164
1031.462	71
1031.708	-70
1031.953	-26
1032.199	64
1032.444	98
1032.69	25
1032.935	20
1033.181	148
1033.426	32
1033.672	-109
1033.918	-66
1034.163	51
1034.409	45
1034.654	0
1034.9	92
1035.145	127
1035.391	58
1035.636	-64
1035.882	21
1036.127	26
1036.373	-15
1036.618	-119
1036.864	-15
1037.109	121
1037.355	24
1037.6	-37
1037.845	9
1038.091	191
1038.336	155
1038.582	174
1038.827	238
1039.073	66
1039.318	-6
1039.564	-105
1039.809	-32
1040.055	155
1040.3	141
1040.545	-31
1040.791	-30
1041.036	12
1041.282	43
1041.527	112
1041.772	-57
1042.018	-4
1042.263	26
1042.509	-111
1042.754	-50
1042.999	64
1043.245	38
1043.49	-121
1043.736	-45
1043.981	34
1044.226	49
1044.472	24
1044.717	26
1044.962	135
1045.208	53
1045.453	-165
1045.698	-85
1045.944	117
1046.189	57
1046.434	-55
1046.68	-27
1046.925	151
1047.17	4
1047.416	-166
1047.661	-57
1047.906	81
1048.152	66
1048.397	-19
1048.642	-36
1048.887	139
1049.133	135
1049.378	-26
1049.623	-45
1049.869	72
1050.114	8
1050.359	-57
1050.604	12
1050.85	161
1051.095	20
1051.34	-69
1051.585	-8
1051.831	184
1052.076	25
1052.321	-180
1052.566	-56
1052.812	123
1053.057	17
1053.302	-46
1053.547	42
1053.792	107
1054.038	83
1054.283	-114
1054.528	-26
1054.773	31
1055.018	22
1055.264	-82
1055.509	-96
1055.754	33
1055.999	-32
1056.244	-123
1056.49	-37
1056.735	36
1056.98	-7
1057.225	-104
1057.47	73
1057.715	-2
1057.96	-75
1058.206	-100
1058.451	-7
1058.696	113
1058.941	60
1059.186	-108
1059.431	-93
1059.676	115
1059.922	66
1060.167	144
1060.412	290
1060.657	78
1060.902	8
1061.147	-166
1061.392	-81
1061.637	74
1061.882	-8
1062.127	-155
1062.373	-141
1062.618	115
1062.863	144
1063.108	-37
1063.353	-86
1063.598	0
1063.843	-38
1064.088	-120
1064.333	-118
1064.578	47
1064.823	71
1065.068	-169
1065.313	-97
1065.558	57
1065.803	40
1066.048	-132
1066.293	-114
1066.538	94
1066.783	12
1067.028	-158
1067.273	-147
1067.518	23
1067.763	-38
1068.008	-183
1068.253	-118
1068.498	66
1068.743	10
1068.988	-130
1069.233	-124
1069.478	81
1069.723	128
1069.968	-66
1070.213	-22
1070.458	87
1070.703	-16
1070.948	-192
1071.193	-66
1071.438	66
1071.683	83
1071.928	-37
1072.173	-38
1072.418	27
1072.663	-23
1072.908	-143
1073.152	-79
1073.397	97
1073.642	-7
1073.887	-50
1074.132	42
1074.377	40
1074.622	10
1074.867	-118
1075.112	-54
1075.357	139
1075.601	-7
1075.846	-61
1076.091	19
1076.336	79
1076.581	-41
1076.826	-160
1077.071	-68
1077.315	190
1077.56	112
1077.805	-116
1078.05	-68
1078.295	-10
1078.54	-33
1078.785	-149
1079.029	-89
1079.274	71
1079.519	-69
1079.764	-163
1080.009	-49
1080.253	29
1080.498	-50
1080.743	-208
1080.988	-65
1081.233	154
1081.478	81
1081.722	-122
1081.967	-10
1082.212	151
1082.457	42
1082.701	-107
1082.946	-68
1083.191	58
1083.436	-40
1083.681	-191
1083.925	-88
1084.17	4
1084.415	29
1084.66	-167
1084.904	-80
1085.149	15
1085.394	-25
1085.639	-201
1085.883	-97
1086.128	151
1086.373	155
1086.617	-74
1086.862	-146
1087.107	-10
1087.352	-62
1087.596	-151
1087.841	-4
1088.086	40
1088.33	8
1088.575	-224
1088.82	-94
1089.064	65
1089.309	-80
1089.554	-184
1089.798	-143
1090.043	41
1090.288	-18
1090.533	-202
1090.777	-130
1091.022	20
1091.266	43
1091.511	-117
1091.756	-25
1092	116
1092.245	91
1092.49	-169
1092.734	-98
1092.979	98
1093.224	-14
1093.468	-169
1093.713	-118
1093.957	20
1094.202	-45
1094.447	-230
1094.691	-84
1094.936	66
1095.181	9
1095.425	-169
1095.67	-153
1095.914	26
1096.159	12
1096.403	-153
1096.648	-73
1096.893	71
1097.137	-75
1097.382	-226
1097.626	-146
1097.871	20
1098.115	-38
1098.36	-204
1098.605	-110
1098.849	-46
1099.094	-110
1099.338	-191
1099.583	-82
1099.827	146
1100.072	21
1100.316	-169
1100.561	-108
1100.805	43
1101.05	13
1101.294	-178
1101.539	-167
1101.783	-2
1102.028	-9
1102.273	-148
1102.517	-90
1102.761	56
1103.006	-73
1103.25	-275
1103.495	-160
1103.739	44
1103.984	92
1104.228	-92
1104.473	-12
1104.717	35
1104.962	4
1105.206	-121
1105.451	-147
1105.695	25
1105.94	-6
1106.184	-146
1106.429	-115
1106.673	4
1106.917	62
1107.162	-183
1107.406	-29
1107.651	134
1107.895	-74
1108.14	-190
1108.384	-105
1108.628	114
1108.873	119
1109.117	-130
1109.362	-117
1109.606	-27
1109.85	-22
1110.095	-152
1110.339	-93
1110.584	89
1110.828	32
1111.072	-97
1111.317	-126
1111.561	-21
1111.806	-42
1112.05	-180
1112.294	-81
1112.539	41
1112.783	8
1113.027	-119
1113.272	-115
1113.516	-24
1113.76	-44
1114.005	-137
1114.249	-76
1114.493	70
1114.738	101
1114.982	-55
1115.226	-99
1115.471	-17
1115.715	-17
1115.959	-182
1116.204	-177
1116.448	-3
1116.692	-101
1116.937	-181
1117.181	-18
1117.425	-20
1117.67	-76
1117.914	-153
1118.158	-90
1118.402	140
1118.647	56
1118.891	-92
1119.135	-25
1119.38	107
1119.624	16
1119.868	-149
1120.112	-154
1120.357	-68
1120.601	-127
1120.845	-225
1121.089	-148
1121.334	39
